SpectraSuite Data File
++++++++++++++++++++++++++++++++++++
Date: Thu Oct 10 14:07:15 EDT 2019
User: surp
Dark Spectrum Present: No
Reference Spectrum Present: No
Number of Sampled Component Spectra: 1
Spectrometers: USB2+H05261
Integration Time (usec): 150000 (USB2+H05261)
Spectra Averaged: 10 (USB2+H05261)
Boxcar Smoothing: 0 (USB2+H05261)
Correct for Electrical Dark: No (USB2+H05261)
Strobe/Lamp Enabled: No (USB2+H05261)
Correct for Detector Non-linearity: No (USB2+H05261)
Correct for Stray Light: No (USB2+H05261)
Number of Pixels in Processed Spectrum: 2048
>>>>>Begin Processed Spectral Data<<<<<
0.00	499.24
1.00	499.24
2.00	499.24
3.00	407.96
4.00	404.91
5.00	432.77
6.00	392.04
7.00	405.85
8.00	401.87
9.00	411.23
10.00	391.81
11.00	418.96
12.00	406.55
13.00	405.61
14.00	374.02
15.00	425.04
16.00	421.53
17.00	400.47
18.00	424.57
19.00	409.13
20.00	440.96
21.00	462.02
22.00	498.07
23.00	503.68
24.00	570.62
25.00	761.38
26.00	809.36
27.00	825.74
28.00	882.85
29.00	865.53
30.00	824.80
31.00	832.06
32.00	811.46
33.00	864.36
34.00	867.40
35.00	876.53
36.00	901.81
37.00	876.76
38.00	894.55
39.00	889.64
40.00	915.85
41.00	926.62
42.00	957.51
43.00	949.09
44.00	923.11
45.00	952.83
46.00	952.13
47.00	927.32
48.00	954.70
49.00	959.15
50.00	940.43
51.00	964.07
52.00	950.73
53.00	1009.71
54.00	940.90
55.00	965.00
56.00	957.28
57.00	949.32
58.00	975.07
59.00	971.79
60.00	1001.52
61.00	980.68
62.00	957.05
63.00	983.96
64.00	1012.98
65.00	975.07
66.00	1031.24
67.00	996.13
68.00	970.62
69.00	982.09
70.00	985.83
71.00	1014.39
72.00	1016.03
73.00	996.13
74.00	970.39
75.00	990.98
76.00	993.32
77.00	1016.26
78.00	1039.67
79.00	1000.11
80.00	1054.41
81.00	1054.65
82.00	1020.94
83.00	1034.98
84.00	1040.13
85.00	1059.09
86.00	1025.62
87.00	1056.05
88.00	1087.18
89.00	1107.54
90.00	1050.90
91.00	1069.16
92.00	1081.33
93.00	1079.69
94.00	1068.92
95.00	1089.75
96.00	1060.73
97.00	1106.14
98.00	1093.50
99.00	1097.71
100.00	1096.31
101.00	1101.69
102.00	1096.07
103.00	1098.41
104.00	1121.35
105.00	1119.71
106.00	1141.01
107.00	1123.69
108.00	1168.86
109.00	1132.82
110.00	1139.14
111.00	1119.71
112.00	1148.73
113.00	1173.78
114.00	1157.16
115.00	1146.16
116.00	1193.21
117.00	1197.42
118.00	1181.50
119.00	1214.04
120.00	1226.91
121.00	1191.80
122.00	1213.80
123.00	1262.95
124.00	1222.46
125.00	1232.06
126.00	1234.87
127.00	1238.61
128.00	1243.29
129.00	1227.14
130.00	1259.44
131.00	1245.63
132.00	1273.25
133.00	1243.99
134.00	1288.00
135.00	1252.19
136.00	1321.00
137.00	1298.76
138.00	1317.49
139.00	1286.83
140.00	1314.21
141.00	1296.19
142.00	1329.42
143.00	1348.62
144.00	1324.04
145.00	1346.28
146.00	1367.34
147.00	1328.96
148.00	1374.13
149.00	1399.64
150.00	1428.19
151.00	1382.09
152.00	1402.68
153.00	1438.03
154.00	1406.43
155.00	1472.43
156.00	1432.17
157.00	1418.83
158.00	1447.39
159.00	1452.77
160.00	1464.01
161.00	1452.77
162.00	1467.05
163.00	1537.73
164.00	1480.62
165.00	1493.50
166.00	1517.84
167.00	1530.01
168.00	1487.88
169.00	1545.22
170.00	1550.37
171.00	1528.37
172.00	1557.63
173.00	1548.26
174.00	1608.65
175.00	1600.69
176.00	1640.01
177.00	1614.97
178.00	1573.07
179.00	1631.59
180.00	1626.91
181.00	1642.82
182.00	1626.67
183.00	1659.44
184.00	1678.16
185.00	1676.99
186.00	1615.20
187.00	1650.78
188.00	1701.57
189.00	1684.95
190.00	1702.27
191.00	1744.17
192.00	1726.38
193.00	1725.68
194.00	1739.72
195.00	1753.76
196.00	1790.04
197.00	1827.72
198.00	1777.87
199.00	1814.15
200.00	1819.06
201.00	1793.32
202.00	1849.26
203.00	1831.47
204.00	1815.32
205.00	1889.51
206.00	1880.85
207.00	1871.96
208.00	1865.64
209.00	1909.64
210.00	1909.88
211.00	1947.33
212.00	1918.30
213.00	1913.86
214.00	1926.96
215.00	1976.11
216.00	2011.46
217.00	2033.69
218.00	2016.37
219.00	2009.82
220.00	2031.58
221.00	2035.10
222.00	2106.48
223.00	2093.14
224.00	2082.84
225.00	2085.18
226.00	2087.06
227.00	2141.59
228.00	2128.72
229.00	2120.53
230.00	2131.06
231.00	2141.82
232.00	2165.70
233.00	2177.87
234.00	2223.51
235.00	2248.32
236.00	2247.38
237.00	2258.38
238.00	2298.64
239.00	2275.47
240.00	2252.06
241.00	2329.07
242.00	2362.54
243.00	2429.71
244.00	2327.90
245.00	2383.84
246.00	2404.20
247.00	2392.96
248.00	2440.71
249.00	2437.43
250.00	2418.01
251.00	2458.97
252.00	2495.01
253.00	2505.78
254.00	2520.52
255.00	2580.21
256.00	2614.14
257.00	2568.04
258.00	2580.21
259.00	2593.08
260.00	2598.46
261.00	2618.83
262.00	2633.34
263.00	2681.79
264.00	2747.55
265.00	2668.21
266.00	2681.55
267.00	2693.49
268.00	2797.41
269.00	2763.00
270.00	2746.62
271.00	2793.43
272.00	2798.34
273.00	2861.54
274.00	2836.96
275.00	2839.54
276.00	2842.11
277.00	2885.88
278.00	2873.48
279.00	2862.24
280.00	2910.92
281.00	2959.84
282.00	2969.91
283.00	2947.44
284.00	2996.35
285.00	3004.78
286.00	3025.38
287.00	3005.72
288.00	3000.57
289.00	3039.89
290.00	3060.02
291.00	3015.78
292.00	3021.16
293.00	3091.15
294.00	3084.12
295.00	3065.40
296.00	3105.66
297.00	3105.42
298.00	3165.11
299.00	3164.40
300.00	3106.36
301.00	3138.19
302.00	3083.66
303.00	3160.89
304.00	3148.72
305.00	3174.23
306.00	3234.39
307.00	3175.40
308.00	3201.38
309.00	3203.49
310.00	3189.21
311.00	3249.60
312.00	3231.34
313.00	3197.17
314.00	3213.09
315.00	3229.71
316.00	3241.64
317.00	3290.33
318.00	3259.20
319.00	3299.45
320.00	3244.92
321.00	3358.20
322.00	3296.64
323.00	3309.28
324.00	3365.46
325.00	3402.90
326.00	3454.40
327.00	3446.44
328.00	3441.76
329.00	3397.05
330.00	3411.33
331.00	3466.57
332.00	3402.90
333.00	3416.01
334.00	3392.84
335.00	3467.74
336.00	3541.00
337.00	3534.44
338.00	3615.43
339.00	3592.96
340.00	3680.02
341.00	3702.96
342.00	3767.33
343.00	3640.47
344.00	3690.09
345.00	3766.39
346.00	3739.01
347.00	3762.65
348.00	3770.13
349.00	3838.95
350.00	3770.37
351.00	3769.90
352.00	3787.22
353.00	3826.31
354.00	3887.40
355.00	3845.50
356.00	3831.93
357.00	3913.84
358.00	3928.59
359.00	3913.14
360.00	3965.10
361.00	4009.10
362.00	4094.07
363.00	4034.62
364.00	3976.34
365.00	4026.66
366.00	3992.95
367.00	4048.66
368.00	4097.11
369.00	4176.22
370.00	4088.45
371.00	4119.81
372.00	4104.83
373.00	4123.79
374.00	4128.24
375.00	4143.45
376.00	4190.26
377.00	4182.54
378.00	4198.45
379.00	4269.14
380.00	4360.89
381.00	4332.33
382.00	4402.31
383.00	4456.61
384.00	4457.55
385.00	4428.06
386.00	4551.41
387.00	4618.35
388.00	4615.30
389.00	4633.56
390.00	4651.58
391.00	4687.39
392.00	4665.16
393.00	4690.43
394.00	4778.44
395.00	4766.03
396.00	4764.63
397.00	4790.14
398.00	5000.32
399.00	4909.27
400.00	4920.74
401.00	4858.95
402.00	4957.72
403.00	5017.17
404.00	5049.47
405.00	5093.24
406.00	5156.90
407.00	5160.41
408.00	5039.88
409.00	4922.38
410.00	4988.85
411.00	5110.09
412.00	5127.41
413.00	5117.82
414.00	5078.73
415.00	5033.56
416.00	5109.16
417.00	5150.58
418.00	5100.03
419.00	5208.16
420.00	5180.31
421.00	5248.18
422.00	5286.10
423.00	5212.84
424.00	5247.95
425.00	5223.37
426.00	5329.17
427.00	5321.68
428.00	5212.84
429.00	5359.83
430.00	5379.25
431.00	5334.31
432.00	5370.36
433.00	5354.68
434.00	5416.70
435.00	5505.64
436.00	5462.11
437.00	5404.06
438.00	5514.77
439.00	5474.28
440.00	5578.67
441.00	5590.60
442.00	5612.14
443.00	5615.41
444.00	5567.43
445.00	5619.16
446.00	5630.39
447.00	5611.43
448.00	5728.46
449.00	5758.19
450.00	5716.76
451.00	5806.87
452.00	5849.70
453.00	5812.72
454.00	5809.91
455.00	5830.04
456.00	5903.53
457.00	5923.43
458.00	6006.98
459.00	5934.66
460.00	5965.56
461.00	5980.77
462.00	5993.64
463.00	6015.18
464.00	6046.54
465.00	6085.86
466.00	6144.61
467.00	6162.40
468.00	6251.34
469.00	6117.46
470.00	6260.00
471.00	6313.83
472.00	6344.02
473.00	6272.17
474.00	6306.81
475.00	6360.64
476.00	6327.17
477.00	6379.13
478.00	6517.69
479.00	6508.33
480.00	6592.82
481.00	6479.07
482.00	6578.78
483.00	6473.92
484.00	6492.65
485.00	6784.04
486.00	6716.64
487.00	6761.57
488.00	6662.80
489.00	6704.70
490.00	6732.08
491.00	6711.95
492.00	6735.59
493.00	6876.49
494.00	6834.60
495.00	6914.18
496.00	6854.26
497.00	6881.88
498.00	6990.71
499.00	6970.58
500.00	6964.26
501.00	6924.94
502.00	7019.03
503.00	7067.48
504.00	7111.48
505.00	7123.19
506.00	7128.10
507.00	7213.77
508.00	7297.32
509.00	7209.08
510.00	7247.47
511.00	7369.41
512.00	7343.20
513.00	7469.59
514.00	7427.46
515.00	7454.14
516.00	7484.10
517.00	7479.42
518.00	7490.18
519.00	7517.10
520.00	7355.60
521.00	7574.44
522.00	7499.31
523.00	7464.67
524.00	7621.25
525.00	7603.00
526.00	7645.36
527.00	7564.61
528.00	7692.64
529.00	7646.76
530.00	7698.96
531.00	7702.23
532.00	7738.98
533.00	7710.19
534.00	7763.32
535.00	7819.73
536.00	7951.03
537.00	7810.84
538.00	7712.07
539.00	7856.94
540.00	7893.46
541.00	7941.44
542.00	7942.84
543.00	7988.25
544.00	8028.51
545.00	8054.02
546.00	8030.61
547.00	7986.14
548.00	8191.41
549.00	8225.58
550.00	8298.37
551.00	8400.42
552.00	8323.41
553.00	8318.26
554.00	8414.69
555.00	8422.18
556.00	8621.36
557.00	8446.29
558.00	8749.39
559.00	8668.88
560.00	8788.95
561.00	8727.62
562.00	8740.73
563.00	8819.37
564.00	8886.08
565.00	8848.86
566.00	8945.76
567.00	9269.69
568.00	8908.78
569.00	9038.45
570.00	8844.18
571.00	9292.63
572.00	9341.55
573.00	9307.61
574.00	9232.71
575.00	9402.63
576.00	9407.55
577.00	9744.59
578.00	9558.51
579.00	9815.27
580.00	9610.47
581.00	9787.65
582.00	9817.85
583.00	9791.40
584.00	9979.34
585.00	10192.80
586.00	10311.00
587.00	10272.38
588.00	10183.44
589.00	10115.33
590.00	10440.66
591.00	10450.26
592.00	10595.61
593.00	10799.23
594.00	10785.19
595.00	10758.97
596.00	10865.94
597.00	10997.01
598.00	11148.44
599.00	11442.65
600.00	11407.07
601.00	11505.84
602.00	11255.64
603.00	11441.71
604.00	11446.16
605.00	11710.40
606.00	12144.10
607.00	11832.58
608.00	11842.41
609.00	12034.57
610.00	12086.99
611.00	12131.93
612.00	12120.70
613.00	12230.70
614.00	12533.80
615.00	12558.14
616.00	12588.34
617.00	12645.21
618.00	12827.54
619.00	12907.12
620.00	12801.09
621.00	12970.08
622.00	12975.70
623.00	13117.77
624.00	13432.10
625.00	13367.74
626.00	13377.57
627.00	13528.06
628.00	13760.95
629.00	13795.35
630.00	14096.11
631.00	14234.20
632.00	14047.43
633.00	13907.23
634.00	14498.92
635.00	14502.90
636.00	14202.84
637.00	14472.23
638.00	14743.50
639.00	14855.38
640.00	14746.08
641.00	14857.49
642.00	14909.21
643.00	15097.63
644.00	15328.40
645.00	15492.71
646.00	15404.47
647.00	15443.32
648.00	15447.54
649.00	15709.44
650.00	15895.28
651.00	15890.83
652.00	16074.33
653.00	16028.69
654.00	16098.91
655.00	16545.72
656.00	16533.08
657.00	16610.31
658.00	16708.62
659.00	16745.36
660.00	17029.50
661.00	17238.28
662.00	17018.50
663.00	17162.21
664.00	17086.14
665.00	17257.00
666.00	17213.00
667.00	17624.00
668.00	17537.87
669.00	17583.51
670.00	17654.19
671.00	17782.45
672.00	17957.29
673.00	18215.22
674.00	18436.40
675.00	18669.75
676.00	18555.77
677.00	18550.38
678.00	18666.71
679.00	18596.26
680.00	18921.59
681.00	19010.30
682.00	19252.31
683.00	19324.63
684.00	19516.32
685.00	19578.35
686.00	19671.50
687.00	19863.89
688.00	19994.73
689.00	19923.81
690.00	20211.23
691.00	20362.43
692.00	20167.93
693.00	20258.97
694.00	20415.79
695.00	20580.56
696.00	20808.77
697.00	20836.15
698.00	20992.97
699.00	21092.44
700.00	20893.73
701.00	21141.12
702.00	21338.66
703.00	21115.61
704.00	21479.56
705.00	21660.02
706.00	21646.44
707.00	21926.61
708.00	21948.37
709.00	22130.94
710.00	22182.90
711.00	22177.75
712.00	22170.49
713.00	22307.65
714.00	22384.65
715.00	22399.39
716.00	22582.42
717.00	22671.60
718.00	23134.56
719.00	22854.16
720.00	22853.69
721.00	22851.12
722.00	22973.29
723.00	23269.61
724.00	23384.76
725.00	23392.02
726.00	23198.69
727.00	23283.65
728.00	23816.82
729.00	23716.65
730.00	23882.12
731.00	23760.88
732.00	23790.14
733.00	23678.03
734.00	23827.36
735.00	23718.52
736.00	23928.23
737.00	24148.71
738.00	24365.91
739.00	24562.05
740.00	24406.17
741.00	24364.51
742.00	24709.97
743.00	24597.39
744.00	24685.40
745.00	24953.86
746.00	25288.08
747.00	25144.38
748.00	25398.09
749.00	25415.41
750.00	25380.77
751.00	25513.48
752.00	25487.03
753.00	26063.74
754.00	25800.19
755.00	25962.16
756.00	25707.74
757.00	25800.90
758.00	25615.76
759.00	25935.71
760.00	26038.46
761.00	26200.89
762.00	26509.84
763.00	26642.79
764.00	26695.68
765.00	26739.92
766.00	26583.10
767.00	26680.70
768.00	26903.99
769.00	26896.73
770.00	27058.23
771.00	27600.30
772.00	27303.52
773.00	27539.68
774.00	27425.93
775.00	27577.13
776.00	27508.08
777.00	27743.77
778.00	28153.13
779.00	28026.04
780.00	28225.22
781.00	27972.21
782.00	28150.33
783.00	28076.83
784.00	28469.34
785.00	28248.16
786.00	28603.92
787.00	28834.70
788.00	28951.02
789.00	29078.82
790.00	29096.37
791.00	29006.73
792.00	29096.60
793.00	29239.61
794.00	29240.55
795.00	29594.90
796.00	29542.01
797.00	29710.06
798.00	29660.67
799.00	29869.92
800.00	29979.69
801.00	30044.29
802.00	30280.91
803.00	30482.20
804.00	30551.71
805.00	30892.73
806.00	31068.27
807.00	30806.83
808.00	30432.58
809.00	30778.04
810.00	30664.06
811.00	30926.90
812.00	30919.18
813.00	30983.54
814.00	30924.33
815.00	31302.32
816.00	31603.08
817.00	31563.06
818.00	31514.85
819.00	31608.70
820.00	31711.45
821.00	31697.88
822.00	32125.73
823.00	32022.04
824.00	31886.29
825.00	32019.23
826.00	32192.20
827.00	32354.16
828.00	32727.48
829.00	32719.05
830.00	32736.84
831.00	32967.85
832.00	32604.36
833.00	32932.51
834.00	32605.77
835.00	33131.22
836.00	33223.44
837.00	33396.17
838.00	33634.20
839.00	33709.80
840.00	33713.08
841.00	33675.16
842.00	33450.47
843.00	33490.26
844.00	33556.49
845.00	33666.50
846.00	33823.55
847.00	33928.17
848.00	34046.13
849.00	34040.05
850.00	34321.85
851.00	34200.61
852.00	34529.69
853.00	34416.17
854.00	34858.53
855.00	34796.98
856.00	35131.68
857.00	35079.72
858.00	35110.14
859.00	35247.77
860.00	34657.72
861.00	34826.24
862.00	35049.29
863.00	35275.38
864.00	35248.94
865.00	35069.42
866.00	35332.26
867.00	35292.47
868.00	35278.43
869.00	35012.78
870.00	35528.86
871.00	35396.16
872.00	35469.88
873.00	35712.83
874.00	35892.82
875.00	36139.28
876.00	35816.28
877.00	35763.15
878.00	35944.08
879.00	35910.37
880.00	36126.40
881.00	36219.56
882.00	36472.33
883.00	36112.83
884.00	36770.99
885.00	36744.54
886.00	36350.39
887.00	36621.19
888.00	36674.09
889.00	36641.09
890.00	36822.95
891.00	36899.95
892.00	36726.28
893.00	36986.78
894.00	36604.34
895.00	36762.09
896.00	36863.20
897.00	37054.43
898.00	36882.86
899.00	37356.82
900.00	37429.61
901.00	37500.77
902.00	37648.22
903.00	38027.62
904.00	37927.68
905.00	38276.65
906.00	38542.77
907.00	37994.38
908.00	38027.62
909.00	37984.09
910.00	40043.52
911.00	38599.18
912.00	38459.92
913.00	38274.31
914.00	38323.93
915.00	37839.21
916.00	38264.01
917.00	38046.81
918.00	38726.50
919.00	38792.98
920.00	38356.70
921.00	38829.72
922.00	39112.46
923.00	38929.43
924.00	38754.12
925.00	38445.87
926.00	38761.38
927.00	38946.28
928.00	38788.76
929.00	38659.33
930.00	39120.18
931.00	38932.71
932.00	39107.54
933.00	39197.19
934.00	39099.12
935.00	39052.07
936.00	39425.86
937.00	39613.33
938.00	39699.00
939.00	39650.55
940.00	39998.59
941.00	39880.86
942.00	39620.59
943.00	40068.33
944.00	40181.15
945.00	39968.16
946.00	39827.02
947.00	40047.50
948.00	39739.02
949.00	40317.37
950.00	40092.44
951.00	40072.31
952.00	39918.77
953.00	39613.57
954.00	39526.26
955.00	39946.16
956.00	40179.27
957.00	39831.94
958.00	39904.96
959.00	40789.92
960.00	40328.13
961.00	40128.95
962.00	40075.59
963.00	40499.69
964.00	40672.66
965.00	40890.33
966.00	40717.13
967.00	41339.01
968.00	41998.81
969.00	41998.81
970.00	41716.54
971.00	42299.10
972.00	42469.96
973.00	42388.04
974.00	42082.60
975.00	42381.02
976.00	42317.59
977.00	41934.21
978.00	42077.68
979.00	42197.75
980.00	42305.65
981.00	42183.01
982.00	42667.50
983.00	41930.93
984.00	41819.52
985.00	42197.75
986.00	42038.83
987.00	42192.60
988.00	42253.69
989.00	43052.05
990.00	42301.20
991.00	42812.14
992.00	42267.73
993.00	42390.14
994.00	42234.03
995.00	42760.18
996.00	42690.44
997.00	42736.78
998.00	43292.66
999.00	43273.70
1000.00	43298.51
1001.00	43271.12
1002.00	43114.31
1003.00	43173.05
1004.00	43372.94
1005.00	43825.83
1006.00	43764.04
1007.00	44024.31
1008.00	43922.73
1009.00	44306.34
1010.00	43565.80
1011.00	43766.85
1012.00	43758.19
1013.00	43907.05
1014.00	43379.02
1015.00	43837.77
1016.00	43761.23
1017.00	43857.43
1018.00	44128.93
1019.00	44088.67
1020.00	44339.11
1021.00	44001.37
1022.00	44115.59
1023.00	44008.39
1024.00	43868.66
1025.00	44267.02
1026.00	44621.85
1027.00	45049.46
1028.00	44957.48
1029.00	44859.41
1030.00	44676.85
1031.00	44667.25
1032.00	45255.19
1033.00	45218.45
1034.00	45292.88
1035.00	44872.05
1036.00	45116.87
1037.00	45285.15
1038.00	45296.15
1039.00	45726.11
1040.00	45399.84
1041.00	45474.27
1042.00	45514.06
1043.00	45407.10
1044.00	45986.14
1045.00	46253.20
1046.00	46479.06
1047.00	46404.63
1048.00	46314.29
1049.00	46616.68
1050.00	46445.36
1051.00	46931.95
1052.00	46363.44
1053.00	46513.23
1054.00	46384.03
1055.00	46294.39
1056.00	46162.62
1057.00	46288.54
1058.00	46297.20
1059.00	46459.40
1060.00	46592.81
1061.00	46935.93
1062.00	46811.18
1063.00	47051.32
1064.00	46869.46
1065.00	47063.02
1066.00	47178.41
1067.00	47201.12
1068.00	47267.82
1069.00	46996.55
1070.00	47007.32
1071.00	47013.87
1072.00	47183.80
1073.00	47516.39
1074.00	47324.23
1075.00	47692.86
1076.00	47813.63
1077.00	47655.88
1078.00	47588.01
1079.00	47668.75
1080.00	47686.54
1081.00	47399.83
1082.00	47942.13
1083.00	47969.98
1084.00	47979.58
1085.00	48176.65
1086.00	48270.51
1087.00	48376.06
1088.00	48331.83
1089.00	47837.51
1090.00	48305.61
1091.00	48106.90
1092.00	48178.29
1093.00	48105.50
1094.00	48002.75
1095.00	48357.34
1096.00	48080.69
1097.00	48052.37
1098.00	48187.42
1099.00	48115.09
1100.00	48056.82
1101.00	48236.57
1102.00	48314.27
1103.00	48623.93
1104.00	48721.76
1105.00	48696.25
1106.00	48660.91
1107.00	48189.52
1108.00	48383.79
1109.00	48581.10
1110.00	48518.84
1111.00	48892.15
1112.00	48621.82
1113.00	49191.27
1114.00	49133.46
1115.00	49266.17
1116.00	49196.42
1117.00	49048.73
1118.00	48871.09
1119.00	48749.61
1120.00	48696.48
1121.00	48791.28
1122.00	48641.72
1123.00	49044.05
1124.00	49033.76
1125.00	49400.75
1126.00	49165.76
1127.00	49070.50
1128.00	49121.06
1129.00	49136.50
1130.00	48894.73
1131.00	48890.75
1132.00	48960.03
1133.00	49246.98
1134.00	49268.98
1135.00	49559.67
1136.00	49753.94
1137.00	50038.31
1138.00	49869.33
1139.00	49497.18
1140.00	49666.17
1141.00	49592.21
1142.00	49401.92
1143.00	49338.73
1144.00	49544.69
1145.00	49556.40
1146.00	49551.25
1147.00	49791.62
1148.00	49303.38
1149.00	49158.97
1150.00	49221.00
1151.00	49251.19
1152.00	49521.76
1153.00	49520.35
1154.00	49634.80
1155.00	49376.41
1156.00	49686.53
1157.00	50020.06
1158.00	50244.98
1159.00	50401.56
1160.00	50301.39
1161.00	50124.68
1162.00	49918.95
1163.00	49686.53
1164.00	49900.46
1165.00	49895.77
1166.00	50104.08
1167.00	49847.09
1168.00	50173.13
1169.00	50341.18
1170.00	49851.30
1171.00	49706.66
1172.00	49683.02
1173.00	49360.96
1174.00	49774.07
1175.00	49903.73
1176.00	49835.86
1177.00	49979.57
1178.00	49937.20
1179.00	50035.27
1180.00	50222.28
1181.00	50581.79
1182.00	50362.01
1183.00	50386.58
1184.00	49907.48
1185.00	50016.31
1186.00	49891.80
1187.00	49865.11
1188.00	49840.77
1189.00	49733.81
1190.00	49622.40
1191.00	49789.75
1192.00	49950.31
1193.00	49705.72
1194.00	50063.59
1195.00	49838.20
1196.00	50117.89
1197.00	49931.82
1198.00	50117.66
1199.00	50213.15
1200.00	50453.06
1201.00	50259.96
1202.00	50375.12
1203.00	50266.52
1204.00	50590.91
1205.00	50574.76
1206.00	50480.91
1207.00	50112.27
1208.00	50256.22
1209.00	50306.54
1210.00	50643.81
1211.00	50842.52
1212.00	50586.47
1213.00	50776.75
1214.00	50773.24
1215.00	50235.62
1216.00	50640.53
1217.00	50458.44
1218.00	50492.14
1219.00	50303.26
1220.00	50250.13
1221.00	50137.08
1222.00	49964.59
1223.00	50438.08
1224.00	50385.18
1225.00	50194.89
1226.00	50162.13
1227.00	50436.44
1228.00	50495.42
1229.00	50228.36
1230.00	50347.26
1231.00	50202.85
1232.00	50249.66
1233.00	50071.31
1234.00	49918.24
1235.00	49799.58
1236.00	50323.86
1237.00	50098.93
1238.00	49799.58
1239.00	50130.30
1240.00	50664.87
1241.00	50622.98
1242.00	50838.07
1243.00	50813.97
1244.00	50517.65
1245.00	50606.83
1246.00	50840.18
1247.00	50841.35
1248.00	50920.93
1249.00	50819.58
1250.00	50830.58
1251.00	50784.48
1252.00	51144.45
1253.00	51183.54
1254.00	51443.10
1255.00	51237.37
1256.00	51171.60
1257.00	51293.31
1258.00	51221.69
1259.00	51312.50
1260.00	51065.57
1261.00	51460.66
1262.00	51504.66
1263.00	51499.51
1264.00	51804.72
1265.00	51544.21
1266.00	51606.24
1267.00	51605.07
1268.00	51543.75
1269.00	51779.91
1270.00	51632.92
1271.00	51063.00
1272.00	51295.18
1273.00	51542.11
1274.00	51266.16
1275.00	51722.33
1276.00	51585.41
1277.00	51680.20
1278.00	51648.84
1279.00	51818.99
1280.00	51678.09
1281.00	51154.98
1282.00	51638.54
1283.00	51656.56
1284.00	51669.67
1285.00	51739.41
1286.00	52125.84
1287.00	52136.60
1288.00	52181.31
1289.00	52362.70
1290.00	52696.46
1291.00	52516.71
1292.00	52284.29
1293.00	52235.14
1294.00	52071.07
1295.00	51917.06
1296.00	51708.29
1297.00	51792.31
1298.00	51617.94
1299.00	51758.61
1300.00	51909.57
1301.00	51999.68
1302.00	52284.53
1303.00	52191.14
1304.00	52083.24
1305.00	52271.18
1306.00	52391.02
1307.00	52270.25
1308.00	52291.55
1309.00	52643.80
1310.00	52482.53
1311.00	52685.22
1312.00	52665.33
1313.00	52810.68
1314.00	52720.57
1315.00	52699.74
1316.00	52734.61
1317.00	52567.50
1318.00	52421.91
1319.00	52301.85
1320.00	52276.57
1321.00	52338.59
1322.00	52370.19
1323.00	52455.15
1324.00	52477.15
1325.00	52699.27
1326.00	52710.27
1327.00	52693.65
1328.00	52592.77
1329.00	52351.00
1330.00	52746.08
1331.00	52600.26
1332.00	52840.40
1333.00	52439.94
1334.00	52612.67
1335.00	52805.53
1336.00	52658.31
1337.00	52597.45
1338.00	52531.45
1339.00	52533.09
1340.00	52733.91
1341.00	52580.60
1342.00	52696.69
1343.00	52494.94
1344.00	52608.69
1345.00	52458.19
1346.00	52335.08
1347.00	52410.21
1348.00	52677.74
1349.00	52471.30
1350.00	52749.82
1351.00	52750.06
1352.00	52892.83
1353.00	52466.38
1354.00	52731.10
1355.00	52549.01
1356.00	52751.93
1357.00	52712.61
1358.00	52884.87
1359.00	52622.03
1360.00	52772.29
1361.00	52630.46
1362.00	52664.63
1363.00	52644.97
1364.00	52564.22
1365.00	52368.08
1366.00	52764.10
1367.00	52502.19
1368.00	52545.03
1369.00	52759.42
1370.00	52745.38
1371.00	52650.35
1372.00	52699.97
1373.00	52768.31
1374.00	52922.79
1375.00	52989.49
1376.00	52886.28
1377.00	53155.91
1378.00	52978.73
1379.00	53202.48
1380.00	53206.46
1381.00	53350.17
1382.00	53248.83
1383.00	53085.69
1384.00	52968.43
1385.00	52801.78
1386.00	52934.96
1387.00	52910.62
1388.00	52750.29
1389.00	52893.30
1390.00	52717.29
1391.00	52900.32
1392.00	52746.31
1393.00	52846.72
1394.00	52695.06
1395.00	52590.67
1396.00	52574.99
1397.00	52472.70
1398.00	52391.49
1399.00	52415.13
1400.00	52482.77
1401.00	52651.99
1402.00	52664.16
1403.00	52997.22
1404.00	52762.93
1405.00	52714.01
1406.00	52874.11
1407.00	52822.15
1408.00	52866.62
1409.00	52727.82
1410.00	52758.25
1411.00	52725.01
1412.00	52620.39
1413.00	52449.53
1414.00	52616.65
1415.00	52256.20
1416.00	52429.40
1417.00	52520.92
1418.00	52494.00
1419.00	52478.56
1420.00	52610.80
1421.00	52887.21
1422.00	52735.08
1423.00	52914.60
1424.00	52666.27
1425.00	52828.23
1426.00	52752.16
1427.00	52644.03
1428.00	52717.99
1429.00	52575.69
1430.00	52508.28
1431.00	52886.51
1432.00	52818.40
1433.00	52815.12
1434.00	52675.39
1435.00	52785.40
1436.00	52823.32
1437.00	52658.31
1438.00	52636.31
1439.00	52604.94
1440.00	52548.77
1441.00	52264.40
1442.00	52275.16
1443.00	52257.84
1444.00	52084.18
1445.00	51961.53
1446.00	52081.60
1447.00	52412.32
1448.00	52539.88
1449.00	52474.11
1450.00	52495.88
1451.00	52736.95
1452.00	52777.44
1453.00	52715.65
1454.00	52608.22
1455.00	52418.87
1456.00	52498.92
1457.00	52176.16
1458.00	52231.16
1459.00	52332.74
1460.00	51958.72
1461.00	52053.05
1462.00	52037.60
1463.00	51859.72
1464.00	52034.79
1465.00	52450.24
1466.00	52113.67
1467.00	52006.70
1468.00	51875.87
1469.00	51861.82
1470.00	51884.76
1471.00	51941.17
1472.00	51853.87
1473.00	51858.78
1474.00	51885.46
1475.00	51836.08
1476.00	51912.38
1477.00	52123.03
1478.00	52089.79
1479.00	52342.34
1480.00	52303.48
1481.00	51929.93
1482.00	51985.17
1483.00	51997.34
1484.00	51723.03
1485.00	51891.78
1486.00	51731.22
1487.00	51675.28
1488.00	51899.98
1489.00	51891.78
1490.00	51837.48
1491.00	51904.19
1492.00	52109.92
1493.00	51735.67
1494.00	51617.71
1495.00	51611.15
1496.00	51431.63
1497.00	51343.40
1498.00	51456.91
1499.00	51271.54
1500.00	51075.87
1501.00	51444.51
1502.00	51237.37
1503.00	51452.46
1504.00	51557.32
1505.00	51858.31
1506.00	52155.09
1507.00	51875.63
1508.00	51930.17
1509.00	51829.06
1510.00	51967.85
1511.00	51847.31
1512.00	51742.93
1513.00	51563.87
1514.00	51514.72
1515.00	51314.61
1516.00	51584.24
1517.00	51069.08
1518.00	51294.71
1519.00	51299.16
1520.00	51132.51
1521.00	51052.94
1522.00	50967.51
1523.00	50718.24
1524.00	50803.67
1525.00	50789.62
1526.00	50949.02
1527.00	50944.80
1528.00	50864.29
1529.00	50804.60
1530.00	50633.75
1531.00	50782.14
1532.00	50792.90
1533.00	51070.72
1534.00	51116.83
1535.00	51061.13
1536.00	51481.25
1537.00	51674.35
1538.00	51622.15
1539.00	51800.50
1540.00	51679.73
1541.00	51586.58
1542.00	51445.44
1543.00	51409.16
1544.00	51154.28
1545.00	51244.39
1546.00	51144.22
1547.00	51196.88
1548.00	50910.63
1549.00	51185.88
1550.00	51063.00
1551.00	51165.52
1552.00	51157.56
1553.00	51137.90
1554.00	51260.54
1555.00	51398.87
1556.00	51231.28
1557.00	51128.77
1558.00	50960.25
1559.00	50938.95
1560.00	50764.35
1561.00	50496.82
1562.00	50608.94
1563.00	50538.02
1564.00	50292.73
1565.00	50099.17
1566.00	50397.82
1567.00	50417.95
1568.00	50432.46
1569.00	50371.14
1570.00	50406.71
1571.00	50573.59
1572.00	50282.66
1573.00	50121.40
1574.00	50411.39
1575.00	50554.17
1576.00	50343.28
1577.00	50277.05
1578.00	50564.47
1579.00	50671.43
1580.00	50283.60
1581.00	50547.85
1582.00	50534.27
1583.00	50649.19
1584.00	50655.28
1585.00	50690.39
1586.00	50782.37
1587.00	50334.16
1588.00	50307.24
1589.00	50778.86
1590.00	50712.62
1591.00	50285.94
1592.00	50400.39
1593.00	50144.57
1594.00	49843.11
1595.00	49963.42
1596.00	49705.49
1597.00	50093.32
1598.00	50128.42
1599.00	49987.99
1600.00	50072.72
1601.00	49961.54
1602.00	49643.46
1603.00	49608.36
1604.00	49250.25
1605.00	49275.77
1606.00	49094.37
1607.00	49056.93
1608.00	49101.40
1609.00	49134.87
1610.00	49088.76
1611.00	49059.50
1612.00	49181.68
1613.00	49159.91
1614.00	49165.76
1615.00	49289.34
1616.00	49495.78
1617.00	49384.60
1618.00	49671.79
1619.00	49729.13
1620.00	49586.36
1621.00	49952.42
1622.00	49808.00
1623.00	49891.33
1624.00	49571.84
1625.00	49672.49
1626.00	49571.14
1627.00	49573.72
1628.00	49454.12
1629.00	49374.30
1630.00	49637.38
1631.00	49842.18
1632.00	49550.08
1633.00	49550.31
1634.00	49418.54
1635.00	49558.27
1636.00	49362.83
1637.00	49309.00
1638.00	49461.61
1639.00	49223.81
1640.00	49317.90
1641.00	48998.88
1642.00	49173.02
1643.00	49160.14
1644.00	49178.87
1645.00	49020.41
1646.00	49348.56
1647.00	49454.35
1648.00	49265.70
1649.00	49235.04
1650.00	48917.66
1651.00	49074.71
1652.00	48901.05
1653.00	49089.69
1654.00	49363.07
1655.00	49269.21
1656.00	49128.55
1657.00	49137.91
1658.00	49091.33
1659.00	48920.24
1660.00	48988.35
1661.00	48966.82
1662.00	48738.15
1663.00	48845.34
1664.00	48983.20
1665.00	48976.18
1666.00	49007.78
1667.00	48836.21
1668.00	48797.13
1669.00	48483.96
1670.00	48188.35
1671.00	48065.94
1672.00	48244.99
1673.00	48156.76
1674.00	48118.84
1675.00	48186.72
1676.00	48062.90
1677.00	48058.22
1678.00	48064.07
1679.00	47867.00
1680.00	47918.49
1681.00	48104.80
1682.00	48174.54
1683.00	48248.51
1684.00	47899.06
1685.00	47654.24
1686.00	47794.68
1687.00	47335.70
1688.00	47073.32
1689.00	46722.24
1690.00	46703.75
1691.00	46451.44
1692.00	46678.01
1693.00	46924.46
1694.00	47065.13
1695.00	47111.01
1696.00	47398.19
1697.00	47489.70
1698.00	47676.48
1699.00	47542.83
1700.00	47426.74
1701.00	47083.85
1702.00	47193.39
1703.00	47210.01
1704.00	47283.97
1705.00	47126.92
1706.00	46996.32
1707.00	46713.35
1708.00	46717.33
1709.00	46825.69
1710.00	46741.20
1711.00	46603.34
1712.00	46658.11
1713.00	46839.50
1714.00	46851.91
1715.00	46984.38
1716.00	47089.47
1717.00	46484.91
1718.00	46409.55
1719.00	46413.53
1720.00	46119.55
1721.00	46299.78
1722.00	45867.48
1723.00	45763.09
1724.00	45702.70
1725.00	45572.34
1726.00	45605.81
1727.00	45383.22
1728.00	45724.71
1729.00	45613.06
1730.00	46027.10
1731.00	46148.34
1732.00	46127.75
1733.00	45865.14
1734.00	45652.62
1735.00	45843.60
1736.00	45359.35
1737.00	44958.65
1738.00	44689.25
1739.00	44369.07
1740.00	44226.76
1741.00	43717.23
1742.00	43844.55
1743.00	43820.91
1744.00	43633.20
1745.00	43541.69
1746.00	43585.46
1747.00	43507.05
1748.00	43208.40
1749.00	43529.99
1750.00	43263.16
1751.00	43100.50
1752.00	42801.14
1753.00	42670.31
1754.00	42623.50
1755.00	42569.90
1756.00	42197.99
1757.00	42248.31
1758.00	42100.85
1759.00	41900.04
1760.00	42026.66
1761.00	41819.29
1762.00	41922.51
1763.00	41986.17
1764.00	42008.87
1765.00	42191.67
1766.00	42093.36
1767.00	42182.77
1768.00	41935.38
1769.00	41803.61
1770.00	41545.91
1771.00	41868.67
1772.00	41510.34
1773.00	41486.93
1774.00	41566.98
1775.00	41447.61
1776.00	41148.26
1777.00	41088.34
1778.00	40844.69
1779.00	41058.38
1780.00	40650.19
1781.00	40409.35
1782.00	40178.10
1783.00	40153.29
1784.00	39906.84
1785.00	39834.28
1786.00	39845.28
1787.00	39448.56
1788.00	39432.18
1789.00	39250.55
1790.00	39305.32
1791.00	39100.99
1792.00	39144.52
1793.00	38708.72
1794.00	38560.79
1795.00	38728.84
1796.00	38377.53
1797.00	38293.27
1798.00	38380.34
1799.00	38431.83
1800.00	38557.05
1801.00	38444.47
1802.00	38369.10
1803.00	38302.87
1804.00	37913.17
1805.00	37667.18
1806.00	37514.81
1807.00	37134.47
1808.00	37044.83
1809.00	36719.03
1810.00	36510.25
1811.00	36249.05
1812.00	36263.79
1813.00	36250.69
1814.00	36126.87
1815.00	35976.84
1816.00	36083.10
1817.00	35949.46
1818.00	35512.71
1819.00	35425.18
1820.00	35360.58
1821.00	35030.56
1822.00	34817.11
1823.00	34637.82
1824.00	34553.80
1825.00	34390.90
1826.00	34222.85
1827.00	34096.46
1828.00	34189.14
1829.00	33956.73
1830.00	33739.52
1831.00	32833.50
1832.00	33541.28
1833.00	33538.47
1834.00	33343.51
1835.00	33061.71
1836.00	33172.65
1837.00	32719.75
1838.00	33036.19
1839.00	32928.76
1840.00	32525.49
1841.00	32210.69
1842.00	31860.07
1843.00	31596.53
1844.00	31121.17
1845.00	30925.97
1846.00	30750.66
1847.00	30473.54
1848.00	30268.51
1849.00	29922.34
1850.00	29597.71
1851.00	29643.82
1852.00	29553.71
1853.00	29447.45
1854.00	29280.10
1855.00	29005.79
1856.00	28773.84
1857.00	28896.72
1858.00	28984.73
1859.00	28859.51
1860.00	28756.76
1861.00	28423.47
1862.00	28321.65
1863.00	28111.00
1864.00	28095.32
1865.00	27871.10
1866.00	28201.82
1867.00	27863.38
1868.00	28196.43
1869.00	27905.04
1870.00	27880.46
1871.00	27969.64
1872.00	27769.99
1873.00	27640.32
1874.00	27711.71
1875.00	27415.87
1876.00	27250.62
1877.00	27087.96
1878.00	26739.45
1879.00	26467.25
1880.00	26309.73
1881.00	25994.46
1882.00	25565.44
1883.00	25610.61
1884.00	25068.31
1885.00	25237.06
1886.00	24621.73
1887.00	24607.92
1888.00	24540.99
1889.00	24390.25
1890.00	24437.53
1891.00	23962.40
1892.00	23914.19
1893.00	23712.67
1894.00	23791.78
1895.00	23625.60
1896.00	23417.29
1897.00	23401.38
1898.00	23516.53
1899.00	23045.38
1900.00	23112.09
1901.00	23095.24
1902.00	22717.71
1903.00	22751.88
1904.00	22663.88
1905.00	22405.01
1906.00	22500.51
1907.00	22094.19
1908.00	21824.79
1909.00	21944.63
1910.00	21844.45
1911.00	21831.81
1912.00	21764.17
1913.00	21856.86
1914.00	21822.69
1915.00	21466.46
1916.00	21421.05
1917.00	21257.45
1918.00	21058.50
1919.00	20857.45
1920.00	20600.69
1921.00	20498.41
1922.00	20321.23
1923.00	20163.95
1924.00	19993.79
1925.00	19692.10
1926.00	19911.41
1927.00	19803.97
1928.00	19330.48
1929.00	19768.87
1930.00	19551.43
1931.00	19484.73
1932.00	19439.79
1933.00	19380.81
1934.00	19603.62
1935.00	19213.93
1936.00	19076.30
1937.00	18889.06
1938.00	19030.19
1939.00	18814.86
1940.00	18706.26
1941.00	18438.04
1942.00	18373.67
1943.00	18213.11
1944.00	18175.20
1945.00	17809.84
1946.00	17714.81
1947.00	17622.36
1948.00	17444.01
1949.00	17425.05
1950.00	17401.65
1951.00	17260.75
1952.00	17141.15
1953.00	17075.61
1954.00	17031.61
1955.00	17001.89
1956.00	16809.96
1957.00	16710.25
1958.00	16631.85
1959.00	16539.63
1960.00	16301.36
1961.00	16262.04
1962.00	16154.14
1963.00	16066.84
1964.00	15946.77
1965.00	15805.87
1966.00	15800.96
1967.00	15586.56
1968.00	15677.84
1969.00	15630.33
1970.00	15471.18
1971.00	15348.06
1972.00	15424.36
1973.00	15357.66
1974.00	15382.47
1975.00	15319.51
1976.00	15059.47
1977.00	15013.83
1978.00	14882.76
1979.00	14743.74
1980.00	14421.68
1981.00	14311.91
1982.00	14065.22
1983.00	14138.01
1984.00	13939.29
1985.00	13852.93
1986.00	13625.19
1987.00	13631.75
1988.00	13455.97
1989.00	13455.97
1990.00	13433.97
1991.00	13325.84
1992.00	13201.09
1993.00	13123.15
1994.00	12889.56
1995.00	13061.59
1996.00	12914.84
1997.00	12803.67
1998.00	12905.48
1999.00	12921.40
2000.00	12748.90
2001.00	12635.38
2002.00	12591.85
2003.00	12827.54
2004.00	12550.89
2005.00	12363.65
2006.00	12384.48
2007.00	12306.07
2008.00	12255.51
2009.00	12265.81
2010.00	12067.33
2011.00	11992.90
2012.00	11981.20
2013.00	11997.59
2014.00	11967.86
2015.00	11643.23
2016.00	11662.66
2017.00	11586.12
2018.00	11578.63
2019.00	11587.99
2020.00	11307.60
2021.00	11195.95
2022.00	11242.76
2023.00	11204.61
2024.00	11050.84
2025.00	11038.67
2026.00	10941.30
2027.00	10816.55
2028.00	10681.03
2029.00	10587.18
2030.00	10547.16
2031.00	10556.99
2032.00	10470.15
2033.00	10389.17
2034.00	10394.79
2035.00	10291.57
2036.00	10223.93
2037.00	10218.78
2038.00	10180.39
2039.00	10093.09
2040.00	10073.43
2041.00	10023.58
2042.00	10028.96
2043.00	9986.13
2044.00	9881.74
2045.00	9823.93
2046.00	9805.21
2047.00	9654.94
>>>>>End Processed Spectral Data<<<<<
