SpectraSuite Data File
++++++++++++++++++++++++++++++++++++
Date: Thu Oct 10 14:09:56 EDT 2019
User: surp
Dark Spectrum Present: No
Reference Spectrum Present: No
Number of Sampled Component Spectra: 1
Spectrometers: USB2+H05261
Integration Time (usec): 150000 (USB2+H05261)
Spectra Averaged: 1 (USB2+H05261)
Boxcar Smoothing: 0 (USB2+H05261)
Correct for Electrical Dark: No (USB2+H05261)
Strobe/Lamp Enabled: No (USB2+H05261)
Correct for Detector Non-linearity: No (USB2+H05261)
Correct for Stray Light: No (USB2+H05261)
Number of Pixels in Processed Spectrum: 2048
>>>>>Begin Processed Spectral Data<<<<<
0.00	418.96
1.00	418.96
2.00	418.96
3.00	407.25
4.00	397.89
5.00	407.25
6.00	402.57
7.00	416.62
8.00	379.17
9.00	423.64
10.00	454.06
11.00	484.49
12.00	414.27
13.00	393.21
14.00	362.78
15.00	449.38
16.00	390.87
17.00	360.44
18.00	435.34
19.00	433.00
20.00	433.00
21.00	428.32
22.00	475.13
23.00	552.37
24.00	486.83
25.00	519.60
26.00	521.94
27.00	573.43
28.00	557.05
29.00	575.77
30.00	610.88
31.00	547.69
32.00	491.51
33.00	587.47
34.00	550.03
35.00	533.64
36.00	664.71
37.00	540.66
38.00	559.39
39.00	580.45
40.00	566.41
41.00	629.60
42.00	587.47
43.00	585.13
44.00	566.41
45.00	636.63
46.00	615.56
47.00	599.18
48.00	620.24
49.00	596.84
50.00	641.31
51.00	631.94
52.00	692.80
53.00	543.00
54.00	601.52
55.00	540.66
56.00	589.82
57.00	568.75
58.00	585.13
59.00	641.31
60.00	561.73
61.00	603.86
62.00	582.79
63.00	629.60
64.00	603.86
65.00	606.20
66.00	606.20
67.00	664.71
68.00	592.16
69.00	634.29
70.00	559.39
71.00	535.98
72.00	648.33
73.00	613.22
74.00	564.07
75.00	624.92
76.00	589.82
77.00	552.37
78.00	566.41
79.00	559.39
80.00	653.01
81.00	571.09
82.00	596.84
83.00	566.41
84.00	533.64
85.00	575.77
86.00	552.37
87.00	606.20
88.00	599.18
89.00	554.71
90.00	550.03
91.00	554.71
92.00	624.92
93.00	615.56
94.00	566.41
95.00	596.84
96.00	554.71
97.00	624.92
98.00	510.24
99.00	645.99
100.00	575.77
101.00	550.03
102.00	521.94
103.00	535.98
104.00	638.97
105.00	594.50
106.00	622.58
107.00	617.90
108.00	575.77
109.00	610.88
110.00	615.56
111.00	648.33
112.00	615.56
113.00	603.86
114.00	606.20
115.00	599.18
116.00	657.69
117.00	603.86
118.00	648.33
119.00	578.11
120.00	566.41
121.00	566.41
122.00	594.50
123.00	582.79
124.00	573.43
125.00	627.26
126.00	610.88
127.00	624.92
128.00	575.77
129.00	585.13
130.00	545.34
131.00	648.33
132.00	653.01
133.00	561.73
134.00	603.86
135.00	594.50
136.00	578.11
137.00	711.52
138.00	557.05
139.00	624.92
140.00	655.35
141.00	596.84
142.00	629.60
143.00	653.01
144.00	657.69
145.00	702.16
146.00	648.33
147.00	629.60
148.00	634.29
149.00	645.99
150.00	702.16
151.00	695.14
152.00	662.37
153.00	704.50
154.00	690.46
155.00	669.39
156.00	660.03
157.00	587.47
158.00	676.41
159.00	638.97
160.00	674.07
161.00	653.01
162.00	777.06
163.00	758.33
164.00	692.80
165.00	723.23
166.00	671.73
167.00	648.33
168.00	688.12
169.00	727.91
170.00	720.88
171.00	706.84
172.00	716.20
173.00	695.14
174.00	713.86
175.00	772.38
176.00	809.83
177.00	800.46
178.00	690.46
179.00	725.57
180.00	774.72
181.00	765.36
182.00	725.57
183.00	777.06
184.00	690.46
185.00	777.06
186.00	753.65
187.00	805.14
188.00	760.67
189.00	727.91
190.00	777.06
191.00	732.59
192.00	798.12
193.00	676.41
194.00	821.53
195.00	774.72
196.00	812.17
197.00	774.72
198.00	840.25
199.00	800.46
200.00	772.38
201.00	812.17
202.00	800.46
203.00	744.29
204.00	777.06
205.00	741.95
206.00	833.23
207.00	791.10
208.00	844.93
209.00	798.12
210.00	847.27
211.00	891.74
212.00	842.59
213.00	840.25
214.00	847.27
215.00	795.78
216.00	926.85
217.00	858.98
218.00	971.32
219.00	861.32
220.00	997.07
221.00	903.45
222.00	880.04
223.00	887.06
224.00	779.40
225.00	830.89
226.00	854.30
227.00	894.08
228.00	898.77
229.00	910.47
230.00	894.08
231.00	903.45
232.00	922.17
233.00	968.98
234.00	917.49
235.00	976.00
236.00	940.90
237.00	950.26
238.00	971.32
239.00	964.30
240.00	968.98
241.00	847.27
242.00	1015.79
243.00	957.28
244.00	940.90
245.00	943.24
246.00	1076.65
247.00	1029.84
248.00	983.02
249.00	929.19
250.00	985.37
251.00	933.87
252.00	985.37
253.00	877.70
254.00	971.32
255.00	992.39
256.00	1025.15
257.00	1027.50
258.00	1004.09
259.00	1102.39
260.00	1114.10
261.00	1104.73
262.00	994.73
263.00	997.07
264.00	1034.52
265.00	1025.15
266.00	1001.75
267.00	1029.84
268.00	1057.92
269.00	1048.56
270.00	1074.31
271.00	1067.28
272.00	1146.86
273.00	1153.88
274.00	1053.24
275.00	1088.35
276.00	1032.18
277.00	1050.90
278.00	999.41
279.00	997.07
280.00	1144.52
281.00	1109.41
282.00	1064.94
283.00	1046.22
284.00	1039.20
285.00	1160.91
286.00	1121.12
287.00	1048.56
288.00	1029.84
289.00	1095.37
290.00	1146.86
291.00	1135.16
292.00	1076.65
293.00	1076.65
294.00	1132.82
295.00	1088.35
296.00	1100.05
297.00	1050.90
298.00	1128.14
299.00	1093.03
300.00	1170.27
301.00	1041.54
302.00	1074.31
303.00	1041.54
304.00	1048.56
305.00	1144.52
306.00	1151.54
307.00	1074.31
308.00	1048.56
309.00	1057.92
310.00	1093.03
311.00	1156.22
312.00	1193.67
313.00	1137.50
314.00	1109.41
315.00	1069.62
316.00	1022.81
317.00	1008.77
318.00	1064.94
319.00	1078.99
320.00	1198.35
321.00	1151.54
322.00	1233.46
323.00	1086.01
324.00	1135.16
325.00	1144.52
326.00	1090.69
327.00	1090.69
328.00	1013.45
329.00	983.02
330.00	954.94
331.00	973.66
332.00	959.62
333.00	933.87
334.00	1022.81
335.00	1064.94
336.00	1088.35
337.00	1100.05
338.00	1114.10
339.00	1207.72
340.00	1200.69
341.00	1170.27
342.00	1294.32
343.00	1025.15
344.00	1128.14
345.00	1188.99
346.00	1118.78
347.00	1277.93
348.00	1268.57
349.00	1163.25
350.00	1181.97
351.00	1088.35
352.00	1170.27
353.00	1210.06
354.00	1167.93
355.00	1146.86
356.00	1221.76
357.00	1181.97
358.00	1231.12
359.00	1151.54
360.00	1198.35
361.00	1289.64
362.00	1254.53
363.00	1324.74
364.00	1240.48
365.00	1186.65
366.00	1263.89
367.00	1291.98
368.00	1308.36
369.00	1322.40
370.00	1224.10
371.00	1249.85
372.00	1172.61
373.00	1184.31
374.00	1240.48
375.00	1184.31
376.00	1210.06
377.00	1219.42
378.00	1191.33
379.00	1240.48
380.00	1217.08
381.00	1266.23
382.00	1210.06
383.00	1369.21
384.00	1317.72
385.00	1327.08
386.00	1282.61
387.00	1416.02
388.00	1369.21
389.00	1406.66
390.00	1387.94
391.00	1301.34
392.00	1291.98
393.00	1329.42
394.00	1366.87
395.00	1432.41
396.00	1380.92
397.00	1500.28
398.00	1563.48
399.00	1392.62
400.00	1371.55
401.00	1416.02
402.00	1390.28
403.00	1387.94
404.00	1397.30
405.00	1430.07
406.00	1467.52
407.00	1434.75
408.00	1430.07
409.00	1453.47
410.00	1357.51
411.00	1394.96
412.00	1385.60
413.00	1397.30
414.00	1348.15
415.00	1369.21
416.00	1378.58
417.00	1296.66
418.00	1425.39
419.00	1430.07
420.00	1507.30
421.00	1432.41
422.00	1371.55
423.00	1441.77
424.00	1418.36
425.00	1437.09
426.00	1507.30
427.00	1416.02
428.00	1416.02
429.00	1502.62
430.00	1462.83
431.00	1507.30
432.00	1500.28
433.00	1409.00
434.00	1453.47
435.00	1544.75
436.00	1481.56
437.00	1530.71
438.00	1502.62
439.00	1495.60
440.00	1631.35
441.00	1488.58
442.00	1624.33
443.00	1530.71
444.00	1540.07
445.00	1521.35
446.00	1430.07
447.00	1511.99
448.00	1565.82
449.00	1526.03
450.00	1551.78
451.00	1600.93
452.00	1502.62
453.00	1500.28
454.00	1451.13
455.00	1420.71
456.00	1504.96
457.00	1514.33
458.00	1486.24
459.00	1547.09
460.00	1507.30
461.00	1479.22
462.00	1511.99
463.00	1540.07
464.00	1453.47
465.00	1483.90
466.00	1437.09
467.00	1540.07
468.00	1565.82
469.00	1540.07
470.00	1575.18
471.00	1561.14
472.00	1511.99
473.00	1551.78
474.00	1516.67
475.00	1696.89
476.00	1579.86
477.00	1598.59
478.00	1572.84
479.00	1586.88
480.00	1614.97
481.00	1544.75
482.00	1654.76
483.00	1563.48
484.00	1479.22
485.00	1561.14
486.00	1563.48
487.00	1629.01
488.00	1558.80
489.00	1530.71
490.00	1598.59
491.00	1633.69
492.00	1533.05
493.00	1727.32
494.00	1544.75
495.00	1596.25
496.00	1671.14
497.00	1652.42
498.00	1713.27
499.00	1680.50
500.00	1638.38
501.00	1717.95
502.00	1661.78
503.00	1607.95
504.00	1598.59
505.00	1729.66
506.00	1666.46
507.00	1778.81
508.00	1729.66
509.00	1689.87
510.00	1767.10
511.00	1617.31
512.00	1645.40
513.00	1687.53
514.00	1652.42
515.00	1526.03
516.00	1640.72
517.00	1565.82
518.00	1572.84
519.00	1680.50
520.00	1533.05
521.00	1675.82
522.00	1549.43
523.00	1703.91
524.00	1659.44
525.00	1636.03
526.00	1666.46
527.00	1643.06
528.00	1629.01
529.00	1589.22
530.00	1689.87
531.00	1570.50
532.00	1654.76
533.00	1689.87
534.00	1659.44
535.00	1593.90
536.00	1638.38
537.00	1549.43
538.00	1591.56
539.00	1741.36
540.00	1685.19
541.00	1689.87
542.00	1614.97
543.00	1610.29
544.00	1675.82
545.00	1629.01
546.00	1671.14
547.00	1549.43
548.00	1617.31
549.00	1727.32
550.00	1659.44
551.00	1577.52
552.00	1593.90
553.00	1629.01
554.00	1685.19
555.00	1570.50
556.00	1703.91
557.00	1736.68
558.00	1820.94
559.00	1708.59
560.00	1767.10
561.00	1675.82
562.00	1680.50
563.00	1734.34
564.00	1720.29
565.00	1694.55
566.00	1668.80
567.00	1713.27
568.00	1748.38
569.00	1724.97
570.00	1753.06
571.00	1884.13
572.00	1818.60
573.00	1792.85
574.00	1720.29
575.00	1874.77
576.00	1790.51
577.00	1743.70
578.00	1778.81
579.00	1825.62
580.00	1870.09
581.00	1853.70
582.00	1764.76
583.00	1844.34
584.00	1769.44
585.00	1825.62
586.00	1914.56
587.00	1867.75
588.00	1851.36
589.00	1872.43
590.00	1980.09
591.00	1905.20
592.00	1863.07
593.00	1895.83
594.00	1935.62
595.00	1994.14
596.00	1900.52
597.00	1940.30
598.00	1975.41
599.00	2066.69
600.00	1966.05
601.00	2076.06
602.00	2022.22
603.00	1994.14
604.00	2008.18
605.00	2040.95
606.00	2001.16
607.00	2026.90
608.00	1977.75
609.00	2029.24
610.00	1994.14
611.00	2040.95
612.00	2087.76
613.00	2073.71
614.00	2111.16
615.00	2029.24
616.00	2118.18
617.00	2097.12
618.00	2076.06
619.00	2047.97
620.00	2134.57
621.00	2160.31
622.00	2223.51
623.00	2204.78
624.00	2150.95
625.00	2260.96
626.00	2129.89
627.00	2146.27
628.00	2127.55
629.00	2165.00
630.00	2249.25
631.00	2134.57
632.00	2256.28
633.00	2076.06
634.00	2036.27
635.00	1980.09
636.00	1888.81
637.00	1937.96
638.00	1956.69
639.00	2064.35
640.00	2078.40
641.00	2108.82
642.00	2115.84
643.00	2148.61
644.00	2197.76
645.00	2218.83
646.00	2157.97
647.00	2312.45
648.00	2186.06
649.00	2232.87
650.00	2298.41
651.00	2333.51
652.00	2314.79
653.00	2303.09
654.00	2277.34
655.00	2679.91
656.00	2502.03
657.00	2314.79
658.00	2462.24
659.00	2427.14
660.00	2490.33
661.00	2377.98
662.00	2445.86
663.00	2459.90
664.00	2363.94
665.00	2403.73
666.00	2504.37
667.00	2373.30
668.00	2455.22
669.00	2312.45
670.00	2392.03
671.00	2441.18
672.00	2464.58
673.00	2492.67
674.00	2553.52
675.00	2569.91
676.00	2565.23
677.00	2590.97
678.00	2586.29
679.00	2544.16
680.00	2539.48
681.00	2534.80
682.00	2541.82
683.00	2621.40
684.00	2818.00
685.00	2724.38
686.00	2736.09
687.00	2792.26
688.00	2665.87
689.00	2619.06
690.00	2628.42
691.00	2689.28
692.00	2656.51
693.00	2698.64
694.00	2743.11
695.00	2724.38
696.00	2822.69
697.00	2738.43
698.00	2754.81
699.00	2775.88
700.00	2672.89
701.00	2843.75
702.00	2799.28
703.00	2675.23
704.00	2595.65
705.00	2729.06
706.00	2677.57
707.00	2693.96
708.00	2841.41
709.00	2712.68
710.00	2654.17
711.00	2860.13
712.00	2867.16
713.00	2836.73
714.00	2829.71
715.00	2796.94
716.00	2829.71
717.00	2810.98
718.00	2839.07
719.00	2967.80
720.00	2766.51
721.00	2743.11
722.00	2787.58
723.00	2785.24
724.00	2698.64
725.00	2773.53
726.00	2789.92
727.00	2665.87
728.00	2843.75
729.00	2895.24
730.00	2963.12
731.00	2848.43
732.00	2902.26
733.00	2920.99
734.00	2890.56
735.00	2902.26
736.00	2946.73
737.00	2862.48
738.00	2878.86
739.00	2935.03
740.00	2897.58
741.00	2953.76
742.00	2984.18
743.00	3035.67
744.00	2960.78
745.00	2892.90
746.00	2883.54
747.00	2939.71
748.00	3098.87
749.00	3040.36
750.00	3056.74
751.00	3059.08
752.00	2949.08
753.00	2967.80
754.00	2913.97
755.00	2960.78
756.00	3077.80
757.00	3063.76
758.00	2981.84
759.00	3052.06
760.00	2970.14
761.00	3075.46
762.00	3014.61
763.00	2993.55
764.00	3028.65
765.00	3236.96
766.00	3208.87
767.00	3080.14
768.00	3026.31
769.00	3028.65
770.00	3115.25
771.00	3159.72
772.00	3145.68
773.00	3084.83
774.00	3042.70
775.00	3002.91
776.00	3105.89
777.00	3026.31
778.00	3080.14
779.00	3260.37
780.00	3262.71
781.00	3286.11
782.00	3349.31
783.00	3288.45
784.00	3440.59
785.00	3162.06
786.00	3141.00
787.00	3016.95
788.00	3108.23
789.00	3101.21
790.00	3075.46
791.00	3005.25
792.00	3101.21
793.00	3098.87
794.00	3052.06
795.00	3066.10
796.00	3098.87
797.00	3164.40
798.00	3112.91
799.00	3089.51
800.00	3204.19
801.00	3143.34
802.00	3152.70
803.00	3162.06
804.00	3159.72
805.00	3126.96
806.00	3211.22
807.00	3197.17
808.00	3073.12
809.00	2988.86
810.00	2895.24
811.00	2857.79
812.00	2717.36
813.00	2649.49
814.00	2771.19
815.00	2820.35
816.00	2909.29
817.00	3047.38
818.00	3103.55
819.00	3049.72
820.00	2965.46
821.00	2860.13
822.00	3007.59
823.00	3014.61
824.00	3040.36
825.00	3192.49
826.00	3201.85
827.00	3049.72
828.00	3215.90
829.00	3246.32
830.00	3234.62
831.00	3129.30
832.00	3258.03
833.00	3239.30
834.00	3307.18
835.00	3229.94
836.00	3293.13
837.00	3351.65
838.00	3314.20
839.00	3358.67
840.00	3201.85
841.00	3389.10
842.00	3101.21
843.00	3321.22
844.00	3243.98
845.00	3220.58
846.00	3187.81
847.00	3162.06
848.00	3162.06
849.00	3258.03
850.00	3384.41
851.00	3356.33
852.00	3372.71
853.00	3398.46
854.00	3412.50
855.00	3363.35
856.00	3410.16
857.00	3382.07
858.00	3389.10
859.00	3410.16
860.00	3365.69
861.00	3454.63
862.00	3356.33
863.00	3393.78
864.00	3433.57
865.00	3283.77
866.00	3232.28
867.00	3229.94
868.00	3042.70
869.00	3007.59
870.00	3049.72
871.00	2970.14
872.00	3035.67
873.00	3112.91
874.00	3253.34
875.00	3267.39
876.00	3251.00
877.00	3382.07
878.00	3407.82
879.00	3342.28
880.00	3302.50
881.00	3456.97
882.00	3492.08
883.00	3485.06
884.00	3503.78
885.00	3344.63
886.00	3330.58
887.00	3353.99
888.00	3307.18
889.00	3405.48
890.00	3398.46
891.00	3471.01
892.00	3456.97
893.00	3510.80
894.00	3590.38
895.00	3564.64
896.00	3492.08
897.00	3485.06
898.00	3400.80
899.00	3361.01
900.00	3417.18
901.00	3337.60
902.00	3323.56
903.00	3428.88
904.00	3452.29
905.00	3405.48
906.00	3555.27
907.00	3597.40
908.00	3545.91
909.00	3517.83
910.00	4751.29
911.00	3674.64
912.00	3728.47
913.00	3646.55
914.00	3489.74
915.00	3609.11
916.00	3520.17
917.00	3487.40
918.00	3466.33
919.00	3501.44
920.00	3428.88
921.00	3592.72
922.00	3620.81
923.00	3588.04
924.00	3496.76
925.00	3447.61
926.00	3316.54
927.00	3393.78
928.00	3251.00
929.00	3323.56
930.00	3361.01
931.00	3311.86
932.00	3382.07
933.00	3363.35
934.00	3356.33
935.00	3363.35
936.00	3468.67
937.00	3428.88
938.00	3463.99
939.00	3379.73
940.00	3356.33
941.00	3492.08
942.00	3251.00
943.00	3344.63
944.00	3431.23
945.00	3604.42
946.00	3794.01
947.00	4011.68
948.00	3868.91
949.00	3922.74
950.00	3562.30
951.00	3487.40
952.00	3243.98
953.00	3269.73
954.00	3171.43
955.00	3358.67
956.00	3410.16
957.00	3286.11
958.00	3321.22
959.00	3328.24
960.00	3328.24
961.00	3363.35
962.00	3267.39
963.00	3206.53
964.00	3316.54
965.00	3318.88
966.00	3372.71
967.00	3346.97
968.00	3393.78
969.00	3297.81
970.00	3304.84
971.00	3349.31
972.00	3487.40
973.00	3405.48
974.00	3368.03
975.00	3447.61
976.00	3293.13
977.00	3447.61
978.00	3295.47
979.00	3269.73
980.00	3323.56
981.00	3417.18
982.00	3286.11
983.00	3344.63
984.00	3428.88
985.00	3389.10
986.00	3335.26
987.00	3332.92
988.00	3314.20
989.00	3377.39
990.00	3459.31
991.00	3428.88
992.00	3272.07
993.00	3253.34
994.00	3330.58
995.00	3297.81
996.00	3258.03
997.00	3417.18
998.00	3332.92
999.00	3361.01
1000.00	3480.38
1001.00	3398.46
1002.00	3365.69
1003.00	3447.61
1004.00	3349.31
1005.00	3478.04
1006.00	3445.27
1007.00	3384.41
1008.00	3398.46
1009.00	3251.00
1010.00	3328.24
1011.00	3407.82
1012.00	3346.97
1013.00	3358.67
1014.00	3309.52
1015.00	3344.63
1016.00	3398.46
1017.00	3358.67
1018.00	3496.76
1019.00	3501.44
1020.00	3468.67
1021.00	3410.16
1022.00	3262.71
1023.00	3314.20
1024.00	3194.83
1025.00	3236.96
1026.00	3272.07
1027.00	3346.97
1028.00	3445.27
1029.00	3435.91
1030.00	3318.88
1031.00	3435.91
1032.00	3538.89
1033.00	3487.40
1034.00	3321.22
1035.00	3435.91
1036.00	3461.65
1037.00	3480.38
1038.00	3325.90
1039.00	3391.44
1040.00	3431.23
1041.00	3501.44
1042.00	3351.65
1043.00	3286.11
1044.00	3356.33
1045.00	3398.46
1046.00	3641.87
1047.00	3384.41
1048.00	3213.56
1049.00	3222.92
1050.00	3236.96
1051.00	3290.79
1052.00	3199.51
1053.00	3194.83
1054.00	3318.88
1055.00	3318.88
1056.00	3414.84
1057.00	3253.34
1058.00	3185.47
1059.00	3204.19
1060.00	3164.40
1061.00	3157.38
1062.00	3194.83
1063.00	3122.27
1064.00	3262.71
1065.00	3274.41
1066.00	3309.52
1067.00	3260.37
1068.00	3344.63
1069.00	3314.20
1070.00	3248.66
1071.00	3307.18
1072.00	3339.94
1073.00	3330.58
1074.00	3274.41
1075.00	3311.86
1076.00	3351.65
1077.00	3332.92
1078.00	3262.71
1079.00	3281.43
1080.00	3351.65
1081.00	3325.90
1082.00	3304.84
1083.00	3363.35
1084.00	3363.35
1085.00	3288.45
1086.00	3339.94
1087.00	3370.37
1088.00	3281.43
1089.00	3330.58
1090.00	3236.96
1091.00	3346.97
1092.00	3178.45
1093.00	3241.64
1094.00	3295.47
1095.00	3405.48
1096.00	3222.92
1097.00	3150.36
1098.00	3243.98
1099.00	3272.07
1100.00	3302.50
1101.00	3206.53
1102.00	3349.31
1103.00	3243.98
1104.00	3183.13
1105.00	3204.19
1106.00	3279.09
1107.00	3276.75
1108.00	3258.03
1109.00	3302.50
1110.00	3143.34
1111.00	3101.21
1112.00	3220.58
1113.00	3267.39
1114.00	3307.18
1115.00	3227.60
1116.00	3150.36
1117.00	3143.34
1118.00	3164.40
1119.00	3157.38
1120.00	3129.30
1121.00	3267.39
1122.00	3208.87
1123.00	3407.82
1124.00	3213.56
1125.00	3164.40
1126.00	3133.98
1127.00	3272.07
1128.00	3225.26
1129.00	3159.72
1130.00	3136.32
1131.00	3082.49
1132.00	3197.17
1133.00	3061.42
1134.00	3038.02
1135.00	3068.44
1136.00	3049.72
1137.00	3283.77
1138.00	3288.45
1139.00	3199.51
1140.00	3220.58
1141.00	3115.25
1142.00	3176.11
1143.00	3171.43
1144.00	3150.36
1145.00	3199.51
1146.00	3295.47
1147.00	3239.30
1148.00	3162.06
1149.00	3159.72
1150.00	3133.98
1151.00	3274.41
1152.00	3255.69
1153.00	3300.16
1154.00	3173.77
1155.00	3150.36
1156.00	3201.85
1157.00	3293.13
1158.00	3248.66
1159.00	3204.19
1160.00	3290.79
1161.00	3129.30
1162.00	3164.40
1163.00	3115.25
1164.00	3337.60
1165.00	3527.19
1166.00	3709.75
1167.00	3815.07
1168.00	4093.60
1169.00	3995.29
1170.00	3709.75
1171.00	3375.05
1172.00	3253.34
1173.00	3176.11
1174.00	3234.62
1175.00	3056.74
1176.00	3122.27
1177.00	3054.40
1178.00	3066.10
1179.00	3002.91
1180.00	2942.05
1181.00	2876.52
1182.00	3136.32
1183.00	3199.51
1184.00	3159.72
1185.00	3162.06
1186.00	3143.34
1187.00	3152.70
1188.00	3052.06
1189.00	3152.70
1190.00	3164.40
1191.00	3311.86
1192.00	3262.71
1193.00	3255.69
1194.00	3260.37
1195.00	3365.69
1196.00	3178.45
1197.00	3349.31
1198.00	3351.65
1199.00	3281.43
1200.00	3471.01
1201.00	3641.87
1202.00	3695.71
1203.00	3517.83
1204.00	3531.87
1205.00	3562.30
1206.00	3438.25
1207.00	3375.05
1208.00	3342.28
1209.00	3332.92
1210.00	3279.09
1211.00	3346.97
1212.00	3251.00
1213.00	3372.71
1214.00	3386.76
1215.00	3426.54
1216.00	3655.92
1217.00	4545.32
1218.00	8299.54
1219.00	13965.98
1220.00	20566.29
1221.00	27473.21
1222.00	33668.61
1223.00	37226.22
1224.00	33184.12
1225.00	24166.03
1226.00	14361.53
1227.00	8798.07
1228.00	5996.45
1229.00	4449.36
1230.00	3864.22
1231.00	3531.87
1232.00	3702.73
1233.00	3499.10
1234.00	3529.53
1235.00	3566.98
1236.00	4512.55
1237.00	5928.58
1238.00	7709.72
1239.00	10230.48
1240.00	12035.03
1241.00	13912.14
1242.00	13832.57
1243.00	11321.17
1244.00	7992.93
1245.00	5493.24
1246.00	4180.20
1247.00	3393.78
1248.00	3098.87
1249.00	2911.63
1250.00	3056.74
1251.00	3180.79
1252.00	3229.94
1253.00	3318.88
1254.00	3506.12
1255.00	3555.27
1256.00	3510.80
1257.00	3438.25
1258.00	3391.44
1259.00	3307.18
1260.00	3082.49
1261.00	3124.62
1262.00	3218.24
1263.00	3136.32
1264.00	3178.45
1265.00	3089.51
1266.00	3145.68
1267.00	3063.76
1268.00	3136.32
1269.00	3243.98
1270.00	3208.87
1271.00	3136.32
1272.00	3220.58
1273.00	3253.34
1274.00	3274.41
1275.00	3929.76
1276.00	6277.32
1277.00	9322.35
1278.00	12512.50
1279.00	16856.54
1280.00	20945.45
1281.00	22778.09
1282.00	21497.82
1283.00	16652.91
1284.00	10572.20
1285.00	7021.61
1286.00	5153.86
1287.00	4198.92
1288.00	3611.45
1289.00	3318.88
1290.00	3258.03
1291.00	3251.00
1292.00	3316.54
1293.00	3318.88
1294.00	3386.76
1295.00	3716.77
1296.00	4311.27
1297.00	5177.26
1298.00	5998.79
1299.00	6953.73
1300.00	7756.54
1301.00	7929.74
1302.00	7070.76
1303.00	5596.22
1304.00	4414.25
1305.00	3873.59
1306.00	3447.61
1307.00	3403.14
1308.00	3141.00
1309.00	3115.25
1310.00	3236.96
1311.00	3073.12
1312.00	3133.98
1313.00	2890.56
1314.00	3019.29
1315.00	2988.86
1316.00	3000.57
1317.00	3033.33
1318.00	2899.92
1319.00	3047.38
1320.00	3028.65
1321.00	3042.70
1322.00	2995.89
1323.00	3014.61
1324.00	2841.41
1325.00	3026.31
1326.00	3014.61
1327.00	2984.18
1328.00	2972.48
1329.00	3124.62
1330.00	3686.34
1331.00	4582.77
1332.00	5380.89
1333.00	6485.62
1334.00	7365.67
1335.00	8269.11
1336.00	8173.15
1337.00	7070.76
1338.00	5675.80
1339.00	4519.57
1340.00	3840.82
1341.00	3417.18
1342.00	3321.22
1343.00	3052.06
1344.00	3049.72
1345.00	3190.15
1346.00	3009.93
1347.00	2953.76
1348.00	3047.38
1349.00	2960.78
1350.00	3171.43
1351.00	3077.80
1352.00	3009.93
1353.00	3173.77
1354.00	3030.99
1355.00	3091.85
1356.00	3059.08
1357.00	3372.71
1358.00	4425.95
1359.00	6630.74
1360.00	8985.32
1361.00	11964.82
1362.00	15463.92
1363.00	19098.77
1364.00	19545.81
1365.00	17823.18
1366.00	13394.89
1367.00	9046.17
1368.00	6427.11
1369.00	5025.13
1370.00	4156.79
1371.00	3782.31
1372.00	4882.36
1373.00	7660.57
1374.00	11028.60
1375.00	15365.62
1376.00	19864.13
1377.00	24699.67
1378.00	25795.04
1379.00	24095.82
1380.00	18047.87
1381.00	12018.65
1382.00	7934.42
1383.00	5893.47
1384.00	4337.01
1385.00	3611.45
1386.00	3295.47
1387.00	3075.46
1388.00	3145.68
1389.00	3084.83
1390.00	3005.25
1391.00	2925.67
1392.00	2986.52
1393.00	3122.27
1394.00	3077.80
1395.00	3276.75
1396.00	3365.69
1397.00	3648.90
1398.00	3810.39
1399.00	4016.36
1400.00	3929.76
1401.00	3791.67
1402.00	4994.70
1403.00	8299.54
1404.00	12681.02
1405.00	18637.69
1406.00	26466.78
1407.00	33387.74
1408.00	38897.36
1409.00	37397.08
1410.00	30476.12
1411.00	20592.03
1412.00	12915.08
1413.00	8898.72
1414.00	6209.44
1415.00	4793.42
1416.00	4793.42
1417.00	5671.12
1418.00	7012.24
1419.00	8809.78
1420.00	10782.85
1421.00	12865.92
1422.00	13366.80
1423.00	11971.84
1424.00	9210.01
1425.00	6782.87
1426.00	4952.57
1427.00	4079.55
1428.00	3557.61
1429.00	2993.55
1430.00	3038.02
1431.00	2906.95
1432.00	2932.69
1433.00	2888.22
1434.00	3002.91
1435.00	2965.46
1436.00	2848.43
1437.00	2792.26
1438.00	2810.98
1439.00	2722.04
1440.00	2658.85
1441.00	2834.39
1442.00	2726.72
1443.00	2813.32
1444.00	2679.91
1445.00	2782.90
1446.00	2651.83
1447.00	2827.37
1448.00	2761.83
1449.00	2726.72
1450.00	2906.95
1451.00	3712.09
1452.00	4706.82
1453.00	5879.43
1454.00	7421.84
1455.00	9097.66
1456.00	10862.43
1457.00	11159.67
1458.00	10689.23
1459.00	8786.37
1460.00	6516.05
1461.00	4849.59
1462.00	3850.18
1463.00	3353.99
1464.00	3075.46
1465.00	2841.41
1466.00	2752.47
1467.00	2740.77
1468.00	2813.32
1469.00	2581.61
1470.00	2825.03
1471.00	2719.70
1472.00	2766.51
1473.00	2675.23
1474.00	2612.04
1475.00	2782.90
1476.00	2675.23
1477.00	2553.52
1478.00	2736.09
1479.00	2775.88
1480.00	2670.55
1481.00	2506.71
1482.00	2771.19
1483.00	3492.08
1484.00	5146.84
1485.00	7265.02
1486.00	9996.43
1487.00	13310.63
1488.00	16760.58
1489.00	19573.90
1490.00	19470.92
1491.00	16444.60
1492.00	12432.93
1493.00	8280.82
1494.00	5685.16
1495.00	4554.68
1496.00	3597.40
1497.00	2944.39
1498.00	2665.87
1499.00	2705.66
1500.00	2628.42
1501.00	2630.76
1502.00	2511.39
1503.00	2509.05
1504.00	2518.42
1505.00	2546.50
1506.00	2520.76
1507.00	2612.04
1508.00	2832.05
1509.00	3255.69
1510.00	4278.50
1511.00	5284.93
1512.00	6956.07
1513.00	8599.13
1514.00	10022.17
1515.00	10583.90
1516.00	10094.73
1517.00	8386.14
1518.00	6317.11
1519.00	4758.31
1520.00	3850.18
1521.00	3274.41
1522.00	2946.73
1523.00	2946.73
1524.00	2761.83
1525.00	2810.98
1526.00	2782.90
1527.00	2806.30
1528.00	3733.15
1529.00	5921.56
1530.00	9280.22
1531.00	13486.17
1532.00	18895.14
1533.00	24900.96
1534.00	29282.44
1535.00	30581.44
1536.00	27990.47
1537.00	21095.25
1538.00	14068.96
1539.00	9231.07
1540.00	6633.08
1541.00	4788.74
1542.00	3786.99
1543.00	3176.11
1544.00	2892.90
1545.00	2785.24
1546.00	2843.75
1547.00	2736.09
1548.00	2658.85
1549.00	2579.27
1550.00	2700.98
1551.00	2569.91
1552.00	2553.52
1553.00	2574.59
1554.00	2761.83
1555.00	2722.04
1556.00	2619.06
1557.00	2759.49
1558.00	2705.66
1559.00	2759.49
1560.00	3103.55
1561.00	4119.34
1562.00	6476.26
1563.00	9275.54
1564.00	13114.02
1565.00	17802.11
1566.00	22572.13
1567.00	26026.76
1568.00	25993.99
1569.00	22363.82
1570.00	16301.83
1571.00	11211.17
1572.00	7719.09
1573.00	6555.84
1574.00	8236.35
1575.00	14026.83
1576.00	22740.64
1577.00	34316.93
1578.00	48774.42
1579.00	57174.61
1580.00	60484.12
1581.00	60643.28
1582.00	56102.64
1583.00	43351.40
1584.00	27658.11
1585.00	17104.64
1586.00	11005.20
1587.00	7087.14
1588.00	4851.93
1589.00	3618.47
1590.00	3213.56
1591.00	2920.99
1592.00	2747.79
1593.00	2684.59
1594.00	2560.55
1595.00	2476.29
1596.00	2567.57
1597.00	2476.29
1598.00	2544.16
1599.00	2438.84
1600.00	2399.05
1601.00	2340.54
1602.00	2366.28
1603.00	2436.50
1604.00	2436.50
1605.00	2406.07
1606.00	2448.20
1607.00	2366.28
1608.00	2373.30
1609.00	2506.71
1610.00	2370.96
1611.00	2406.07
1612.00	2417.77
1613.00	2431.82
1614.00	2366.28
1615.00	2319.47
1616.00	2396.71
1617.00	2356.92
1618.00	2436.50
1619.00	2307.77
1620.00	2333.51
1621.00	2380.32
1622.00	2326.49
1623.00	2270.32
1624.00	2258.62
1625.00	2422.45
1626.00	2368.62
1627.00	2387.35
1628.00	2359.26
1629.00	2361.60
1630.00	2377.98
1631.00	2345.22
1632.00	2345.22
1633.00	2380.32
1634.00	2363.94
1635.00	2349.90
1636.00	2427.14
1637.00	2417.77
1638.00	2368.62
1639.00	2349.90
1640.00	2438.84
1641.00	2317.13
1642.00	2387.35
1643.00	2431.82
1644.00	2726.72
1645.00	3686.34
1646.00	6190.72
1647.00	9860.68
1648.00	13905.12
1649.00	20814.38
1650.00	26583.80
1651.00	31201.68
1652.00	32261.94
1653.00	29022.64
1654.00	21476.76
1655.00	14827.29
1656.00	9598.54
1657.00	6700.95
1658.00	4823.84
1659.00	3541.23
1660.00	2806.30
1661.00	2588.63
1662.00	2483.31
1663.00	2750.13
1664.00	3304.84
1665.00	4432.97
1666.00	5858.36
1667.00	7536.52
1668.00	9254.48
1669.00	10600.29
1670.00	11358.62
1671.00	10942.00
1672.00	9109.36
1673.00	6782.87
1674.00	4856.61
1675.00	3812.73
1676.00	3066.10
1677.00	2532.46
1678.00	2403.73
1679.00	2125.21
1680.00	2132.23
1681.00	2153.29
1682.00	2108.82
1683.00	1991.80
1684.00	2003.50
1685.00	1914.56
1686.00	1909.88
1687.00	1905.20
1688.00	1907.54
1689.00	1783.49
1690.00	1781.15
1691.00	1905.20
1692.00	1851.36
1693.00	1832.64
1694.00	1839.66
1695.00	1886.47
1696.00	1982.43
1697.00	1926.26
1698.00	2026.90
1699.00	1991.80
1700.00	2092.44
1701.00	1952.01
1702.00	1998.82
1703.00	1982.43
1704.00	2162.66
1705.00	2087.76
1706.00	2015.20
1707.00	1991.80
1708.00	2113.50
1709.00	2469.27
1710.00	3375.05
1711.00	4781.71
1712.00	6237.53
1713.00	8210.60
1714.00	10399.00
1715.00	11843.11
1716.00	12645.91
1717.00	12109.93
1718.00	10134.52
1719.00	7782.28
1720.00	5439.40
1721.00	4098.28
1722.00	3260.37
1723.00	2750.13
1724.00	2228.19
1725.00	2127.55
1726.00	2043.29
1727.00	2026.90
1728.00	2094.78
1729.00	1956.69
1730.00	1998.82
1731.00	1991.80
1732.00	1996.48
1733.00	1949.67
1734.00	1888.81
1735.00	2031.58
1736.00	1839.66
1737.00	1914.56
1738.00	1970.73
1739.00	1991.80
1740.00	1839.66
1741.00	1982.43
1742.00	2033.93
1743.00	1853.70
1744.00	1837.32
1745.00	1902.86
1746.00	1944.99
1747.00	1886.47
1748.00	1947.33
1749.00	1921.58
1750.00	1891.15
1751.00	1919.24
1752.00	1977.75
1753.00	1942.64
1754.00	1851.36
1755.00	1991.80
1756.00	2005.84
1757.00	2008.18
1758.00	1942.64
1759.00	1893.49
1760.00	2024.56
1761.00	1872.43
1762.00	1989.46
1763.00	2080.74
1764.00	2202.44
1765.00	2801.62
1766.00	4475.10
1767.00	6682.23
1768.00	9371.50
1769.00	12760.60
1770.00	15459.24
1771.00	17928.50
1772.00	18656.41
1773.00	17476.78
1774.00	14340.46
1775.00	10492.62
1776.00	6979.48
1777.00	4816.82
1778.00	3389.10
1779.00	2764.17
1780.00	2342.88
1781.00	2148.61
1782.00	2036.27
1783.00	1991.80
1784.00	1933.28
1785.00	1930.94
1786.00	1809.23
1787.00	1774.13
1788.00	1788.17
1789.00	1839.66
1790.00	1820.94
1791.00	1914.56
1792.00	1872.43
1793.00	2640.12
1794.00	3861.88
1795.00	5427.70
1796.00	7140.97
1797.00	9076.60
1798.00	10427.09
1799.00	11578.63
1800.00	11754.17
1801.00	10321.76
1802.00	8311.24
1803.00	6171.99
1804.00	4292.54
1805.00	3007.59
1806.00	2356.92
1807.00	2078.40
1808.00	1888.81
1809.00	1820.94
1810.00	1846.68
1811.00	1764.76
1812.00	1675.82
1813.00	1722.63
1814.00	1748.38
1815.00	1631.35
1816.00	1760.08
1817.00	1708.59
1818.00	1675.82
1819.00	1624.33
1820.00	1680.50
1821.00	1624.33
1822.00	1673.48
1823.00	1645.40
1824.00	1629.01
1825.00	1675.82
1826.00	1643.06
1827.00	1694.55
1828.00	1685.19
1829.00	1659.44
1830.00	1659.44
1831.00	1631.35
1832.00	1596.25
1833.00	1535.39
1834.00	1493.26
1835.00	1593.90
1836.00	1631.35
1837.00	1614.97
1838.00	1596.25
1839.00	1575.18
1840.00	1561.14
1841.00	1561.14
1842.00	1621.99
1843.00	1629.01
1844.00	1558.80
1845.00	1582.20
1846.00	1600.93
1847.00	1486.24
1848.00	1659.44
1849.00	1556.46
1850.00	1621.99
1851.00	1448.79
1852.00	1598.59
1853.00	1586.88
1854.00	1521.35
1855.00	1486.24
1856.00	1504.96
1857.00	1514.33
1858.00	1528.37
1859.00	1507.30
1860.00	1519.01
1861.00	1451.13
1862.00	1544.75
1863.00	1462.83
1864.00	1528.37
1865.00	1455.81
1866.00	1504.96
1867.00	1458.15
1868.00	1493.26
1869.00	1446.45
1870.00	1507.30
1871.00	1472.20
1872.00	1418.36
1873.00	1425.39
1874.00	1458.15
1875.00	1521.35
1876.00	1418.36
1877.00	1399.64
1878.00	1383.26
1879.00	1357.51
1880.00	1500.28
1881.00	1413.68
1882.00	1345.81
1883.00	1366.87
1884.00	1425.39
1885.00	1331.76
1886.00	1418.36
1887.00	1373.89
1888.00	1376.24
1889.00	1380.92
1890.00	1469.86
1891.00	1371.55
1892.00	1362.19
1893.00	1320.06
1894.00	1348.15
1895.00	1401.98
1896.00	1327.08
1897.00	1409.00
1898.00	1394.96
1899.00	1387.94
1900.00	1420.71
1901.00	1380.92
1902.00	1345.81
1903.00	1352.83
1904.00	1483.90
1905.00	1308.36
1906.00	1226.44
1907.00	1224.10
1908.00	1200.69
1909.00	1273.25
1910.00	1228.78
1911.00	1067.28
1912.00	1074.31
1913.00	1123.46
1914.00	1160.91
1915.00	1011.11
1916.00	1259.21
1917.00	1177.29
1918.00	1217.08
1919.00	1301.34
1920.00	1289.64
1921.00	1284.95
1922.00	1263.89
1923.00	1125.80
1924.00	1144.52
1925.00	1090.69
1926.00	1149.20
1927.00	1184.31
1928.00	1121.12
1929.00	1165.59
1930.00	1210.06
1931.00	1191.33
1932.00	1203.04
1933.00	1135.16
1934.00	1217.08
1935.00	1224.10
1936.00	1231.12
1937.00	1247.51
1938.00	1163.25
1939.00	1200.69
1940.00	1233.46
1941.00	1196.01
1942.00	1203.04
1943.00	1177.29
1944.00	1266.23
1945.00	1306.02
1946.00	1303.68
1947.00	1694.55
1948.00	2289.04
1949.00	3372.71
1950.00	4372.12
1951.00	5446.43
1952.00	6370.94
1953.00	7449.93
1954.00	8278.47
1955.00	8561.68
1956.00	8109.96
1957.00	6729.04
1958.00	5167.90
1959.00	3782.31
1960.00	2663.53
1961.00	2003.50
1962.00	1521.35
1963.00	1373.89
1964.00	1238.14
1965.00	1228.78
1966.00	1219.42
1967.00	1214.74
1968.00	1165.59
1969.00	1198.35
1970.00	1245.16
1971.00	1135.16
1972.00	1212.40
1973.00	1217.08
1974.00	1280.27
1975.00	1212.40
1976.00	1130.48
1977.00	1109.41
1978.00	1139.84
1979.00	1224.10
1980.00	1160.91
1981.00	1219.42
1982.00	1144.52
1983.00	1174.95
1984.00	1160.91
1985.00	1275.59
1986.00	1156.22
1987.00	1186.65
1988.00	1191.33
1989.00	1128.14
1990.00	1125.80
1991.00	1165.59
1992.00	1090.69
1993.00	1167.93
1994.00	1130.48
1995.00	1273.25
1996.00	1067.28
1997.00	1088.35
1998.00	1121.12
1999.00	1181.97
2000.00	1111.75
2001.00	1170.27
2002.00	1151.54
2003.00	1336.45
2004.00	1128.14
2005.00	1121.12
2006.00	1081.33
2007.00	1156.22
2008.00	1111.75
2009.00	1034.52
2010.00	1111.75
2011.00	1025.15
2012.00	1074.31
2013.00	1107.07
2014.00	1041.54
2015.00	1078.99
2016.00	1095.37
2017.00	1160.91
2018.00	1111.75
2019.00	1254.53
2020.00	1123.46
2021.00	1327.08
2022.00	1308.36
2023.00	1427.73
2024.00	1547.09
2025.00	2223.51
2026.00	3262.71
2027.00	4219.99
2028.00	5083.64
2029.00	6022.20
2030.00	6885.86
2031.00	8170.81
2032.00	8786.37
2033.00	9268.52
2034.00	8863.61
2035.00	7679.30
2036.00	5879.43
2037.00	4472.76
2038.00	3183.13
2039.00	2310.11
2040.00	1689.87
2041.00	1448.79
2042.00	1256.87
2043.00	1144.52
2044.00	1128.14
2045.00	1130.48
2046.00	1130.48
2047.00	1039.20
>>>>>End Processed Spectral Data<<<<<
