SpectraSuite Data File
++++++++++++++++++++++++++++++++++++
Date: Thu Oct 10 14:08:52 EDT 2019
User: surp
Dark Spectrum Present: No
Reference Spectrum Present: No
Number of Sampled Component Spectra: 1
Spectrometers: USB2+H05261
Integration Time (usec): 150000 (USB2+H05261)
Spectra Averaged: 1 (USB2+H05261)
Boxcar Smoothing: 0 (USB2+H05261)
Correct for Electrical Dark: No (USB2+H05261)
Strobe/Lamp Enabled: No (USB2+H05261)
Correct for Detector Non-linearity: No (USB2+H05261)
Correct for Stray Light: No (USB2+H05261)
Number of Pixels in Processed Spectrum: 2048
>>>>>Begin Processed Spectral Data<<<<<
0.00	531.30
1.00	531.30
2.00	531.30
3.00	353.42
4.00	416.62
5.00	393.21
6.00	318.31
7.00	362.78
8.00	360.44
9.00	397.89
10.00	411.93
11.00	418.96
12.00	442.36
13.00	416.62
14.00	334.70
15.00	376.83
16.00	472.79
17.00	390.87
18.00	402.57
19.00	437.68
20.00	456.40
21.00	486.83
22.00	507.90
23.00	575.77
24.00	489.17
25.00	465.77
26.00	568.75
27.00	545.34
28.00	571.09
29.00	538.32
30.00	545.34
31.00	521.94
32.00	533.64
33.00	493.85
34.00	505.56
35.00	521.94
36.00	524.28
37.00	566.41
38.00	587.47
39.00	559.39
40.00	617.90
41.00	608.54
42.00	624.92
43.00	589.82
44.00	594.50
45.00	664.71
46.00	599.18
47.00	601.52
48.00	580.45
49.00	641.31
50.00	580.45
51.00	531.30
52.00	603.86
53.00	645.99
54.00	592.16
55.00	613.22
56.00	526.62
57.00	582.79
58.00	627.26
59.00	599.18
60.00	564.07
61.00	512.58
62.00	589.82
63.00	561.73
64.00	636.63
65.00	568.75
66.00	662.37
67.00	557.05
68.00	557.05
69.00	559.39
70.00	521.94
71.00	657.69
72.00	664.71
73.00	608.54
74.00	566.41
75.00	573.43
76.00	568.75
77.00	550.03
78.00	617.90
79.00	596.84
80.00	550.03
81.00	571.09
82.00	505.56
83.00	526.62
84.00	587.47
85.00	554.71
86.00	524.28
87.00	559.39
88.00	631.94
89.00	608.54
90.00	580.45
91.00	599.18
92.00	643.65
93.00	599.18
94.00	587.47
95.00	566.41
96.00	568.75
97.00	545.34
98.00	664.71
99.00	575.77
100.00	585.13
101.00	578.11
102.00	538.32
103.00	540.66
104.00	594.50
105.00	545.34
106.00	538.32
107.00	573.43
108.00	610.88
109.00	582.79
110.00	608.54
111.00	594.50
112.00	545.34
113.00	580.45
114.00	540.66
115.00	594.50
116.00	514.92
117.00	599.18
118.00	653.01
119.00	519.60
120.00	627.26
121.00	601.52
122.00	587.47
123.00	589.82
124.00	489.17
125.00	631.94
126.00	519.60
127.00	660.03
128.00	596.84
129.00	580.45
130.00	554.71
131.00	533.64
132.00	620.24
133.00	519.60
134.00	599.18
135.00	568.75
136.00	627.26
137.00	594.50
138.00	561.73
139.00	557.05
140.00	657.69
141.00	500.87
142.00	606.20
143.00	692.80
144.00	554.71
145.00	540.66
146.00	564.07
147.00	571.09
148.00	648.33
149.00	629.60
150.00	613.22
151.00	613.22
152.00	634.29
153.00	683.44
154.00	622.58
155.00	697.48
156.00	564.07
157.00	578.11
158.00	554.71
159.00	615.56
160.00	589.82
161.00	620.24
162.00	599.18
163.00	610.88
164.00	533.64
165.00	559.39
166.00	589.82
167.00	528.96
168.00	524.28
169.00	540.66
170.00	653.01
171.00	627.26
172.00	568.75
173.00	655.35
174.00	627.26
175.00	627.26
176.00	599.18
177.00	667.05
178.00	603.86
179.00	587.47
180.00	533.64
181.00	695.14
182.00	631.94
183.00	617.90
184.00	624.92
185.00	587.47
186.00	655.35
187.00	608.54
188.00	660.03
189.00	582.79
190.00	594.50
191.00	517.26
192.00	550.03
193.00	589.82
194.00	606.20
195.00	561.73
196.00	573.43
197.00	690.46
198.00	566.41
199.00	557.05
200.00	610.88
201.00	557.05
202.00	664.71
203.00	594.50
204.00	634.29
205.00	575.77
206.00	573.43
207.00	641.31
208.00	631.94
209.00	582.79
210.00	589.82
211.00	608.54
212.00	695.14
213.00	578.11
214.00	657.69
215.00	585.13
216.00	582.79
217.00	685.78
218.00	660.03
219.00	594.50
220.00	711.52
221.00	655.35
222.00	629.60
223.00	748.97
224.00	685.78
225.00	711.52
226.00	653.01
227.00	713.86
228.00	653.01
229.00	617.90
230.00	620.24
231.00	564.07
232.00	641.31
233.00	606.20
234.00	596.84
235.00	699.82
236.00	653.01
237.00	627.26
238.00	638.97
239.00	624.92
240.00	561.73
241.00	571.09
242.00	650.67
243.00	716.20
244.00	627.26
245.00	779.40
246.00	695.14
247.00	657.69
248.00	688.12
249.00	667.05
250.00	601.52
251.00	643.65
252.00	664.71
253.00	690.46
254.00	688.12
255.00	620.24
256.00	699.82
257.00	622.58
258.00	636.63
259.00	671.73
260.00	662.37
261.00	685.78
262.00	716.20
263.00	692.80
264.00	760.67
265.00	594.50
266.00	720.88
267.00	704.50
268.00	678.76
269.00	645.99
270.00	671.73
271.00	657.69
272.00	650.67
273.00	744.29
274.00	676.41
275.00	697.48
276.00	702.16
277.00	753.65
278.00	631.94
279.00	660.03
280.00	697.48
281.00	685.78
282.00	631.94
283.00	669.39
284.00	709.18
285.00	624.92
286.00	669.39
287.00	758.33
288.00	667.05
289.00	723.23
290.00	683.44
291.00	645.99
292.00	685.78
293.00	636.63
294.00	676.41
295.00	645.99
296.00	648.33
297.00	620.24
298.00	746.63
299.00	737.27
300.00	674.07
301.00	662.37
302.00	629.60
303.00	582.79
304.00	641.31
305.00	678.76
306.00	723.23
307.00	709.18
308.00	697.48
309.00	641.31
310.00	589.82
311.00	713.86
312.00	706.84
313.00	688.12
314.00	638.97
315.00	674.07
316.00	662.37
317.00	617.90
318.00	662.37
319.00	720.88
320.00	657.69
321.00	634.29
322.00	723.23
323.00	641.31
324.00	631.94
325.00	683.44
326.00	636.63
327.00	641.31
328.00	664.71
329.00	667.05
330.00	685.78
331.00	627.26
332.00	660.03
333.00	669.39
334.00	594.50
335.00	664.71
336.00	650.67
337.00	641.31
338.00	711.52
339.00	744.29
340.00	727.91
341.00	755.99
342.00	713.86
343.00	751.31
344.00	706.84
345.00	779.40
346.00	755.99
347.00	812.17
348.00	807.48
349.00	1015.79
350.00	1069.62
351.00	1156.22
352.00	1123.46
353.00	1050.90
354.00	990.05
355.00	812.17
356.00	821.53
357.00	713.86
358.00	716.20
359.00	751.31
360.00	730.25
361.00	720.88
362.00	823.87
363.00	741.95
364.00	746.63
365.00	671.73
366.00	784.08
367.00	660.03
368.00	683.44
369.00	763.01
370.00	727.91
371.00	737.27
372.00	725.57
373.00	692.80
374.00	716.20
375.00	725.57
376.00	631.94
377.00	706.84
378.00	711.52
379.00	676.41
380.00	734.93
381.00	730.25
382.00	709.18
383.00	720.88
384.00	688.12
385.00	784.08
386.00	678.76
387.00	802.80
388.00	702.16
389.00	795.78
390.00	744.29
391.00	716.20
392.00	739.61
393.00	741.95
394.00	730.25
395.00	732.59
396.00	748.97
397.00	779.40
398.00	856.64
399.00	807.48
400.00	791.10
401.00	669.39
402.00	713.86
403.00	755.99
404.00	725.57
405.00	758.33
406.00	781.74
407.00	816.85
408.00	760.67
409.00	814.51
410.00	774.72
411.00	809.83
412.00	688.12
413.00	671.73
414.00	683.44
415.00	730.25
416.00	723.23
417.00	767.70
418.00	692.80
419.00	688.12
420.00	798.12
421.00	760.67
422.00	737.27
423.00	716.20
424.00	763.01
425.00	741.95
426.00	732.59
427.00	723.23
428.00	758.33
429.00	774.72
430.00	840.25
431.00	706.84
432.00	716.20
433.00	730.25
434.00	751.31
435.00	772.38
436.00	798.12
437.00	706.84
438.00	697.48
439.00	774.72
440.00	833.23
441.00	669.39
442.00	763.01
443.00	763.01
444.00	784.08
445.00	819.19
446.00	800.46
447.00	774.72
448.00	791.10
449.00	763.01
450.00	711.52
451.00	765.36
452.00	821.53
453.00	772.38
454.00	730.25
455.00	718.54
456.00	739.61
457.00	849.61
458.00	753.65
459.00	702.16
460.00	732.59
461.00	774.72
462.00	734.93
463.00	706.84
464.00	793.44
465.00	727.91
466.00	763.01
467.00	720.88
468.00	741.95
469.00	809.83
470.00	744.29
471.00	767.70
472.00	800.46
473.00	758.33
474.00	748.97
475.00	744.29
476.00	744.29
477.00	814.51
478.00	800.46
479.00	746.63
480.00	751.31
481.00	837.91
482.00	851.96
483.00	748.97
484.00	786.42
485.00	784.08
486.00	763.01
487.00	727.91
488.00	821.53
489.00	784.08
490.00	751.31
491.00	765.36
492.00	842.59
493.00	819.19
494.00	746.63
495.00	828.55
496.00	751.31
497.00	772.38
498.00	856.64
499.00	837.91
500.00	835.57
501.00	866.00
502.00	856.64
503.00	788.76
504.00	779.40
505.00	793.44
506.00	828.55
507.00	798.12
508.00	779.40
509.00	767.70
510.00	854.30
511.00	793.44
512.00	765.36
513.00	727.91
514.00	725.57
515.00	802.80
516.00	788.76
517.00	800.46
518.00	758.33
519.00	755.99
520.00	828.55
521.00	784.08
522.00	751.31
523.00	809.83
524.00	788.76
525.00	807.48
526.00	868.34
527.00	697.48
528.00	814.51
529.00	793.44
530.00	847.27
531.00	765.36
532.00	774.72
533.00	786.42
534.00	770.04
535.00	798.12
536.00	781.74
537.00	835.57
538.00	795.78
539.00	767.70
540.00	880.04
541.00	791.10
542.00	755.99
543.00	758.33
544.00	812.17
545.00	849.61
546.00	758.33
547.00	690.46
548.00	786.42
549.00	802.80
550.00	718.54
551.00	741.95
552.00	833.23
553.00	723.23
554.00	709.18
555.00	767.70
556.00	917.49
557.00	777.06
558.00	866.00
559.00	884.72
560.00	779.40
561.00	802.80
562.00	821.53
563.00	767.70
564.00	788.76
565.00	823.87
566.00	741.95
567.00	793.44
568.00	861.32
569.00	821.53
570.00	734.93
571.00	861.32
572.00	870.68
573.00	915.15
574.00	807.48
575.00	910.47
576.00	858.98
577.00	800.46
578.00	835.57
579.00	805.14
580.00	802.80
581.00	819.19
582.00	760.67
583.00	727.91
584.00	877.70
585.00	807.48
586.00	819.19
587.00	922.17
588.00	861.32
589.00	791.10
590.00	814.51
591.00	912.81
592.00	908.13
593.00	875.36
594.00	781.74
595.00	858.98
596.00	802.80
597.00	821.53
598.00	884.72
599.00	880.04
600.00	873.02
601.00	882.38
602.00	870.68
603.00	887.06
604.00	903.45
605.00	875.36
606.00	950.26
607.00	929.19
608.00	926.85
609.00	870.68
610.00	842.59
611.00	959.62
612.00	922.17
613.00	854.30
614.00	908.13
615.00	903.45
616.00	858.98
617.00	964.30
618.00	807.48
619.00	863.66
620.00	868.34
621.00	901.11
622.00	950.26
623.00	903.45
624.00	889.40
625.00	950.26
626.00	919.83
627.00	952.60
628.00	976.00
629.00	1018.13
630.00	1046.22
631.00	1081.33
632.00	1275.59
633.00	2282.02
634.00	4163.81
635.00	6029.22
636.00	6698.61
637.00	6820.32
638.00	5666.44
639.00	3981.25
640.00	2712.68
641.00	1762.42
642.00	1268.57
643.00	1078.99
644.00	1043.88
645.00	952.60
646.00	922.17
647.00	950.26
648.00	861.32
649.00	896.43
650.00	917.49
651.00	940.90
652.00	884.72
653.00	919.83
654.00	877.70
655.00	1247.51
656.00	938.55
657.00	1046.22
658.00	940.90
659.00	968.98
660.00	936.21
661.00	987.71
662.00	1013.45
663.00	1064.94
664.00	987.71
665.00	950.26
666.00	992.39
667.00	1060.26
668.00	954.94
669.00	945.58
670.00	924.51
671.00	908.13
672.00	917.49
673.00	1071.97
674.00	978.34
675.00	1048.56
676.00	1055.58
677.00	917.49
678.00	1006.43
679.00	945.58
680.00	1027.50
681.00	919.83
682.00	1018.13
683.00	961.96
684.00	973.66
685.00	1069.62
686.00	1020.47
687.00	1004.09
688.00	976.00
689.00	910.47
690.00	1001.75
691.00	1025.15
692.00	999.41
693.00	950.26
694.00	1020.47
695.00	1001.75
696.00	1032.18
697.00	1102.39
698.00	1048.56
699.00	1048.56
700.00	1041.54
701.00	1097.71
702.00	994.73
703.00	980.68
704.00	1057.92
705.00	1055.58
706.00	1015.79
707.00	990.05
708.00	1100.05
709.00	905.79
710.00	1001.75
711.00	1041.54
712.00	1029.84
713.00	1135.16
714.00	1020.47
715.00	947.92
716.00	1142.18
717.00	1064.94
718.00	1008.77
719.00	1270.91
720.00	1034.52
721.00	1015.79
722.00	1046.22
723.00	1064.94
724.00	1107.07
725.00	1086.01
726.00	1057.92
727.00	1100.05
728.00	1081.33
729.00	1025.15
730.00	1046.22
731.00	1130.48
732.00	1102.39
733.00	1015.79
734.00	1006.43
735.00	1015.79
736.00	1062.60
737.00	1022.81
738.00	1022.81
739.00	1102.39
740.00	1069.62
741.00	1060.26
742.00	1137.50
743.00	1153.88
744.00	1212.40
745.00	1104.73
746.00	1086.01
747.00	1097.71
748.00	1053.24
749.00	1095.37
750.00	1114.10
751.00	1090.69
752.00	1060.26
753.00	1027.50
754.00	1095.37
755.00	1055.58
756.00	994.73
757.00	1048.56
758.00	1057.92
759.00	1043.88
760.00	1116.44
761.00	1057.92
762.00	1018.13
763.00	1050.90
764.00	1144.52
765.00	1219.42
766.00	1081.33
767.00	1062.60
768.00	1062.60
769.00	1034.52
770.00	1123.46
771.00	1076.65
772.00	997.07
773.00	1060.26
774.00	1207.72
775.00	1132.82
776.00	1100.05
777.00	1128.14
778.00	1100.05
779.00	1135.16
780.00	1046.22
781.00	1128.14
782.00	1153.88
783.00	1153.88
784.00	1481.56
785.00	1081.33
786.00	1039.20
787.00	1078.99
788.00	999.41
789.00	1102.39
790.00	1022.81
791.00	1170.27
792.00	1160.91
793.00	1128.14
794.00	1041.54
795.00	1020.47
796.00	1039.20
797.00	1097.71
798.00	1107.07
799.00	1130.48
800.00	1090.69
801.00	1046.22
802.00	1013.45
803.00	1153.88
804.00	1109.41
805.00	1165.59
806.00	1123.46
807.00	1158.57
808.00	1107.07
809.00	1132.82
810.00	1078.99
811.00	1036.86
812.00	1093.03
813.00	1011.11
814.00	1032.18
815.00	1046.22
816.00	1062.60
817.00	1146.86
818.00	1111.75
819.00	1055.58
820.00	1095.37
821.00	1083.67
822.00	1128.14
823.00	1156.22
824.00	1165.59
825.00	1069.62
826.00	1081.33
827.00	1132.82
828.00	1191.33
829.00	1132.82
830.00	1158.57
831.00	1233.46
832.00	1139.84
833.00	1170.27
834.00	1071.97
835.00	1067.28
836.00	1172.61
837.00	1137.50
838.00	1090.69
839.00	1170.27
840.00	1181.97
841.00	1139.84
842.00	1139.84
843.00	1219.42
844.00	1198.35
845.00	1062.60
846.00	1224.10
847.00	1179.63
848.00	1142.18
849.00	1256.87
850.00	1273.25
851.00	1240.48
852.00	1158.57
853.00	1167.93
854.00	1165.59
855.00	1144.52
856.00	1200.69
857.00	1093.03
858.00	1203.04
859.00	1191.33
860.00	1186.65
861.00	1186.65
862.00	1165.59
863.00	1219.42
864.00	1249.85
865.00	1214.74
866.00	1170.27
867.00	1144.52
868.00	1130.48
869.00	1097.71
870.00	1095.37
871.00	1086.01
872.00	1097.71
873.00	1179.63
874.00	1263.89
875.00	1177.29
876.00	1156.22
877.00	1196.01
878.00	1144.52
879.00	1200.69
880.00	1217.08
881.00	1233.46
882.00	1275.59
883.00	1207.72
884.00	1277.93
885.00	1151.54
886.00	1132.82
887.00	1191.33
888.00	1179.63
889.00	1219.42
890.00	1287.29
891.00	1205.38
892.00	1158.57
893.00	1184.31
894.00	1256.87
895.00	1245.16
896.00	1235.80
897.00	1270.91
898.00	1172.61
899.00	1125.80
900.00	1191.33
901.00	1144.52
902.00	1198.35
903.00	1076.65
904.00	1111.75
905.00	1217.08
906.00	1210.06
907.00	1153.88
908.00	1224.10
909.00	1291.98
910.00	2593.31
911.00	1245.16
912.00	1193.67
913.00	1186.65
914.00	1186.65
915.00	1174.95
916.00	1219.42
917.00	1151.54
918.00	1280.27
919.00	1167.93
920.00	1224.10
921.00	1282.61
922.00	1263.89
923.00	1193.67
924.00	1149.20
925.00	1170.27
926.00	1163.25
927.00	1090.69
928.00	1128.14
929.00	1156.22
930.00	1228.78
931.00	1205.38
932.00	1144.52
933.00	1193.67
934.00	1207.72
935.00	1188.99
936.00	1188.99
937.00	1226.44
938.00	1186.65
939.00	1224.10
940.00	1165.59
941.00	1186.65
942.00	1165.59
943.00	1158.57
944.00	1184.31
945.00	1102.39
946.00	1270.91
947.00	1144.52
948.00	1125.80
949.00	1184.31
950.00	1179.63
951.00	1181.97
952.00	1142.18
953.00	1191.33
954.00	1135.16
955.00	1064.94
956.00	1196.01
957.00	1217.08
958.00	1179.63
959.00	1226.44
960.00	1214.74
961.00	1228.78
962.00	1235.80
963.00	1177.29
964.00	1198.35
965.00	1205.38
966.00	1153.88
967.00	1228.78
968.00	1191.33
969.00	1259.21
970.00	1205.38
971.00	1249.85
972.00	1196.01
973.00	1181.97
974.00	1132.82
975.00	1263.89
976.00	1203.04
977.00	1158.57
978.00	1149.20
979.00	1226.44
980.00	1217.08
981.00	1275.59
982.00	1256.87
983.00	1170.27
984.00	1193.67
985.00	1163.25
986.00	1111.75
987.00	1177.29
988.00	1200.69
989.00	1224.10
990.00	1256.87
991.00	1158.57
992.00	1142.18
993.00	1235.80
994.00	1172.61
995.00	1275.59
996.00	1207.72
997.00	1186.65
998.00	1235.80
999.00	1144.52
1000.00	1186.65
1001.00	1207.72
1002.00	1212.40
1003.00	1191.33
1004.00	1240.48
1005.00	1153.88
1006.00	1170.27
1007.00	1203.04
1008.00	1207.72
1009.00	1233.46
1010.00	1174.95
1011.00	1224.10
1012.00	1146.86
1013.00	1188.99
1014.00	1184.31
1015.00	1149.20
1016.00	1233.46
1017.00	1191.33
1018.00	1196.01
1019.00	1191.33
1020.00	1205.38
1021.00	1181.97
1022.00	1097.71
1023.00	1179.63
1024.00	1121.12
1025.00	1111.75
1026.00	1177.29
1027.00	1214.74
1028.00	1135.16
1029.00	1203.04
1030.00	1193.67
1031.00	1254.53
1032.00	1341.13
1033.00	1207.72
1034.00	1181.97
1035.00	1235.80
1036.00	1336.45
1037.00	1282.61
1038.00	1212.40
1039.00	1146.86
1040.00	1123.46
1041.00	1275.59
1042.00	1256.87
1043.00	1158.57
1044.00	1256.87
1045.00	1231.12
1046.00	1378.58
1047.00	1245.16
1048.00	1165.59
1049.00	1193.67
1050.00	1188.99
1051.00	1163.25
1052.00	1167.93
1053.00	1109.41
1054.00	1174.95
1055.00	1146.86
1056.00	1245.16
1057.00	1212.40
1058.00	1142.18
1059.00	1142.18
1060.00	1104.73
1061.00	1165.59
1062.00	1165.59
1063.00	1090.69
1064.00	1184.31
1065.00	1191.33
1066.00	1191.33
1067.00	1111.75
1068.00	1207.72
1069.00	1203.04
1070.00	1217.08
1071.00	1210.06
1072.00	1186.65
1073.00	1191.33
1074.00	1132.82
1075.00	1214.74
1076.00	1144.52
1077.00	1254.53
1078.00	1146.86
1079.00	1205.38
1080.00	1254.53
1081.00	1238.14
1082.00	1121.12
1083.00	1198.35
1084.00	1235.80
1085.00	1144.52
1086.00	1184.31
1087.00	1247.51
1088.00	1158.57
1089.00	1203.04
1090.00	1235.80
1091.00	1153.88
1092.00	1177.29
1093.00	1219.42
1094.00	1163.25
1095.00	1165.59
1096.00	1219.42
1097.00	1146.86
1098.00	1153.88
1099.00	1144.52
1100.00	1158.57
1101.00	1170.27
1102.00	1179.63
1103.00	1074.31
1104.00	1116.44
1105.00	1139.84
1106.00	1167.93
1107.00	1170.27
1108.00	1163.25
1109.00	1186.65
1110.00	1156.22
1111.00	1167.93
1112.00	1109.41
1113.00	1174.95
1114.00	1303.68
1115.00	1256.87
1116.00	1181.97
1117.00	1240.48
1118.00	1219.42
1119.00	1167.93
1120.00	1270.91
1121.00	1299.00
1122.00	1163.25
1123.00	1231.12
1124.00	1191.33
1125.00	1198.35
1126.00	1205.38
1127.00	1284.95
1128.00	1102.39
1129.00	1214.74
1130.00	1203.04
1131.00	1181.97
1132.00	1158.57
1133.00	1231.12
1134.00	1188.99
1135.00	1210.06
1136.00	1170.27
1137.00	1198.35
1138.00	1268.57
1139.00	1174.95
1140.00	1184.31
1141.00	1207.72
1142.00	1226.44
1143.00	1193.67
1144.00	1203.04
1145.00	1238.14
1146.00	1299.00
1147.00	1212.40
1148.00	1153.88
1149.00	1252.19
1150.00	1174.95
1151.00	1240.48
1152.00	1256.87
1153.00	1217.08
1154.00	1200.69
1155.00	1245.16
1156.00	1177.29
1157.00	1142.18
1158.00	1118.78
1159.00	1114.10
1160.00	1217.08
1161.00	1217.08
1162.00	1198.35
1163.00	1123.46
1164.00	1146.86
1165.00	1200.69
1166.00	1174.95
1167.00	1217.08
1168.00	1174.95
1169.00	1252.19
1170.00	1172.61
1171.00	1228.78
1172.00	1221.76
1173.00	1184.31
1174.00	1174.95
1175.00	1181.97
1176.00	1196.01
1177.00	1212.40
1178.00	1149.20
1179.00	1078.99
1180.00	1095.37
1181.00	1137.50
1182.00	1123.46
1183.00	1252.19
1184.00	1291.98
1185.00	1181.97
1186.00	1090.69
1187.00	1214.74
1188.00	1184.31
1189.00	1205.38
1190.00	1205.38
1191.00	1121.12
1192.00	1116.44
1193.00	1214.74
1194.00	1270.91
1195.00	1193.67
1196.00	1228.78
1197.00	1294.32
1198.00	1254.53
1199.00	1277.93
1200.00	1247.51
1201.00	1198.35
1202.00	1284.95
1203.00	1228.78
1204.00	1273.25
1205.00	1238.14
1206.00	1263.89
1207.00	1210.06
1208.00	1270.91
1209.00	1266.23
1210.00	1266.23
1211.00	1306.02
1212.00	1259.21
1213.00	1235.80
1214.00	1191.33
1215.00	1320.06
1216.00	1200.69
1217.00	1259.21
1218.00	1299.00
1219.00	1261.55
1220.00	1139.84
1221.00	1186.65
1222.00	1196.01
1223.00	1149.20
1224.00	1118.78
1225.00	1259.21
1226.00	1231.12
1227.00	1146.86
1228.00	1179.63
1229.00	1174.95
1230.00	1100.05
1231.00	1266.23
1232.00	1181.97
1233.00	1186.65
1234.00	1224.10
1235.00	1109.41
1236.00	1226.44
1237.00	1193.67
1238.00	1184.31
1239.00	1167.93
1240.00	1181.97
1241.00	1184.31
1242.00	1142.18
1243.00	1121.12
1244.00	1205.38
1245.00	1086.01
1246.00	1146.86
1247.00	1104.73
1248.00	1177.29
1249.00	1132.82
1250.00	999.41
1251.00	1242.82
1252.00	1060.26
1253.00	1177.29
1254.00	1158.57
1255.00	1149.20
1256.00	1158.57
1257.00	1064.94
1258.00	1219.42
1259.00	1078.99
1260.00	1212.40
1261.00	1153.88
1262.00	1249.85
1263.00	1299.00
1264.00	1224.10
1265.00	1181.97
1266.00	1167.93
1267.00	1186.65
1268.00	1282.61
1269.00	1196.01
1270.00	1109.41
1271.00	1203.04
1272.00	1177.29
1273.00	1125.80
1274.00	1156.22
1275.00	1149.20
1276.00	1144.52
1277.00	1165.59
1278.00	1186.65
1279.00	1191.33
1280.00	1200.69
1281.00	1158.57
1282.00	1142.18
1283.00	1231.12
1284.00	1142.18
1285.00	1165.59
1286.00	1167.93
1287.00	1090.69
1288.00	1088.35
1289.00	1181.97
1290.00	1212.40
1291.00	1163.25
1292.00	1240.48
1293.00	1172.61
1294.00	1172.61
1295.00	1167.93
1296.00	1210.06
1297.00	1177.29
1298.00	1179.63
1299.00	1193.67
1300.00	1135.16
1301.00	1238.14
1302.00	1125.80
1303.00	1139.84
1304.00	1121.12
1305.00	1219.42
1306.00	1149.20
1307.00	1231.12
1308.00	1121.12
1309.00	1228.78
1310.00	1104.73
1311.00	1139.84
1312.00	1109.41
1313.00	1156.22
1314.00	1200.69
1315.00	1167.93
1316.00	1186.65
1317.00	1259.21
1318.00	1259.21
1319.00	1069.62
1320.00	1151.54
1321.00	1205.38
1322.00	1170.27
1323.00	1181.97
1324.00	1090.69
1325.00	1170.27
1326.00	1238.14
1327.00	1226.44
1328.00	1214.74
1329.00	1128.14
1330.00	1149.20
1331.00	1242.82
1332.00	1174.95
1333.00	1146.86
1334.00	1231.12
1335.00	1203.04
1336.00	1219.42
1337.00	1188.99
1338.00	1245.16
1339.00	1203.04
1340.00	1193.67
1341.00	1224.10
1342.00	1181.97
1343.00	1118.78
1344.00	1254.53
1345.00	1322.40
1346.00	1224.10
1347.00	1128.14
1348.00	1210.06
1349.00	1137.50
1350.00	1196.01
1351.00	1235.80
1352.00	1226.44
1353.00	1163.25
1354.00	1210.06
1355.00	1142.18
1356.00	1116.44
1357.00	1142.18
1358.00	1170.27
1359.00	1109.41
1360.00	1224.10
1361.00	1118.78
1362.00	1125.80
1363.00	1210.06
1364.00	1193.67
1365.00	1142.18
1366.00	1104.73
1367.00	1139.84
1368.00	1111.75
1369.00	1111.75
1370.00	1109.41
1371.00	1210.06
1372.00	1203.04
1373.00	1172.61
1374.00	1228.78
1375.00	1125.80
1376.00	1181.97
1377.00	1203.04
1378.00	1165.59
1379.00	1137.50
1380.00	1067.28
1381.00	1118.78
1382.00	1160.91
1383.00	1086.01
1384.00	1156.22
1385.00	1074.31
1386.00	1170.27
1387.00	1104.73
1388.00	1097.71
1389.00	1093.03
1390.00	1107.07
1391.00	1149.20
1392.00	1118.78
1393.00	1146.86
1394.00	1191.33
1395.00	1137.50
1396.00	1139.84
1397.00	1090.69
1398.00	1158.57
1399.00	1167.93
1400.00	1203.04
1401.00	1107.07
1402.00	1186.65
1403.00	1095.37
1404.00	1083.67
1405.00	1107.07
1406.00	1184.31
1407.00	1165.59
1408.00	1165.59
1409.00	1121.12
1410.00	1137.50
1411.00	1050.90
1412.00	1069.62
1413.00	1207.72
1414.00	1062.60
1415.00	1123.46
1416.00	1116.44
1417.00	1076.65
1418.00	1109.41
1419.00	1097.71
1420.00	1029.84
1421.00	1060.26
1422.00	1060.26
1423.00	1125.80
1424.00	1039.20
1425.00	1071.97
1426.00	1184.31
1427.00	1160.91
1428.00	1067.28
1429.00	1027.50
1430.00	1020.47
1431.00	1163.25
1432.00	1121.12
1433.00	1139.84
1434.00	1191.33
1435.00	1116.44
1436.00	1107.07
1437.00	1158.57
1438.00	1013.45
1439.00	1043.88
1440.00	1050.90
1441.00	1132.82
1442.00	1078.99
1443.00	1224.10
1444.00	1015.79
1445.00	1097.71
1446.00	1100.05
1447.00	1104.73
1448.00	1165.59
1449.00	1064.94
1450.00	1125.80
1451.00	1123.46
1452.00	1130.48
1453.00	1109.41
1454.00	1029.84
1455.00	1086.01
1456.00	1022.81
1457.00	1064.94
1458.00	1013.45
1459.00	1266.23
1460.00	983.02
1461.00	1067.28
1462.00	1102.39
1463.00	1086.01
1464.00	1139.84
1465.00	1032.18
1466.00	1086.01
1467.00	1053.24
1468.00	1074.31
1469.00	1071.97
1470.00	1107.07
1471.00	1121.12
1472.00	1046.22
1473.00	1118.78
1474.00	1078.99
1475.00	1050.90
1476.00	1053.24
1477.00	1013.45
1478.00	1104.73
1479.00	1172.61
1480.00	1043.88
1481.00	1043.88
1482.00	1025.15
1483.00	1036.86
1484.00	1057.92
1485.00	1081.33
1486.00	1060.26
1487.00	1053.24
1488.00	985.37
1489.00	971.32
1490.00	1111.75
1491.00	1102.39
1492.00	1020.47
1493.00	1053.24
1494.00	971.32
1495.00	1011.11
1496.00	1006.43
1497.00	999.41
1498.00	1074.31
1499.00	1069.62
1500.00	1055.58
1501.00	1006.43
1502.00	1022.81
1503.00	1081.33
1504.00	968.98
1505.00	1006.43
1506.00	1034.52
1507.00	1020.47
1508.00	1097.71
1509.00	1076.65
1510.00	1048.56
1511.00	1081.33
1512.00	1025.15
1513.00	1074.31
1514.00	1086.01
1515.00	1090.69
1516.00	1097.71
1517.00	987.71
1518.00	1022.81
1519.00	1097.71
1520.00	1071.97
1521.00	1032.18
1522.00	1032.18
1523.00	1041.54
1524.00	1086.01
1525.00	1060.26
1526.00	1093.03
1527.00	1013.45
1528.00	1001.75
1529.00	1043.88
1530.00	1020.47
1531.00	1027.50
1532.00	1013.45
1533.00	1025.15
1534.00	1018.13
1535.00	1055.58
1536.00	1027.50
1537.00	1013.45
1538.00	1048.56
1539.00	1018.13
1540.00	945.58
1541.00	999.41
1542.00	1121.12
1543.00	1053.24
1544.00	1022.81
1545.00	943.24
1546.00	966.64
1547.00	1078.99
1548.00	1020.47
1549.00	1013.45
1550.00	1027.50
1551.00	973.66
1552.00	985.37
1553.00	1011.11
1554.00	990.05
1555.00	1020.47
1556.00	1008.77
1557.00	1041.54
1558.00	971.32
1559.00	1104.73
1560.00	1018.13
1561.00	976.00
1562.00	1060.26
1563.00	1057.92
1564.00	992.39
1565.00	1062.60
1566.00	1053.24
1567.00	1013.45
1568.00	983.02
1569.00	1093.03
1570.00	1027.50
1571.00	1109.41
1572.00	1090.69
1573.00	1036.86
1574.00	1078.99
1575.00	1034.52
1576.00	1004.09
1577.00	1074.31
1578.00	1142.18
1579.00	1015.79
1580.00	1001.75
1581.00	1050.90
1582.00	1025.15
1583.00	980.68
1584.00	1025.15
1585.00	950.26
1586.00	1088.35
1587.00	1020.47
1588.00	947.92
1589.00	950.26
1590.00	1029.84
1591.00	901.11
1592.00	1018.13
1593.00	983.02
1594.00	964.30
1595.00	971.32
1596.00	966.64
1597.00	1153.88
1598.00	1043.88
1599.00	968.98
1600.00	1048.56
1601.00	959.62
1602.00	964.30
1603.00	992.39
1604.00	987.71
1605.00	990.05
1606.00	1018.13
1607.00	1020.47
1608.00	961.96
1609.00	1067.28
1610.00	999.41
1611.00	926.85
1612.00	976.00
1613.00	954.94
1614.00	1029.84
1615.00	980.68
1616.00	1013.45
1617.00	1008.77
1618.00	1022.81
1619.00	1008.77
1620.00	973.66
1621.00	1008.77
1622.00	924.51
1623.00	999.41
1624.00	1046.22
1625.00	1132.82
1626.00	1074.31
1627.00	1001.75
1628.00	1032.18
1629.00	1055.58
1630.00	1041.54
1631.00	1055.58
1632.00	968.98
1633.00	1057.92
1634.00	1022.81
1635.00	1100.05
1636.00	1039.20
1637.00	1046.22
1638.00	1067.28
1639.00	1090.69
1640.00	987.71
1641.00	1116.44
1642.00	1081.33
1643.00	994.73
1644.00	971.32
1645.00	1064.94
1646.00	1076.65
1647.00	999.41
1648.00	1086.01
1649.00	1125.80
1650.00	1025.15
1651.00	1060.26
1652.00	1086.01
1653.00	1163.25
1654.00	1118.78
1655.00	1116.44
1656.00	1132.82
1657.00	1121.12
1658.00	1123.46
1659.00	1114.10
1660.00	1078.99
1661.00	1158.57
1662.00	1207.72
1663.00	1111.75
1664.00	1111.75
1665.00	1184.31
1666.00	1083.67
1667.00	1172.61
1668.00	1142.18
1669.00	1191.33
1670.00	1268.57
1671.00	1158.57
1672.00	1163.25
1673.00	1266.23
1674.00	1217.08
1675.00	1280.27
1676.00	1268.57
1677.00	1259.21
1678.00	1284.95
1679.00	1364.53
1680.00	1413.68
1681.00	1584.54
1682.00	1530.71
1683.00	1980.09
1684.00	4376.80
1685.00	10310.06
1686.00	19248.57
1687.00	28489.00
1688.00	40683.19
1689.00	49092.74
1690.00	52814.19
1691.00	53420.39
1692.00	47784.38
1693.00	33198.16
1694.00	21483.78
1695.00	12711.45
1696.00	7861.86
1697.00	4966.62
1698.00	3276.75
1699.00	2202.44
1700.00	1739.02
1701.00	1444.11
1702.00	1310.70
1703.00	1233.46
1704.00	1252.19
1705.00	1128.14
1706.00	1146.86
1707.00	1074.31
1708.00	1100.05
1709.00	1118.78
1710.00	1071.97
1711.00	1135.16
1712.00	1064.94
1713.00	1064.94
1714.00	980.68
1715.00	1074.31
1716.00	1046.22
1717.00	1022.81
1718.00	1025.15
1719.00	1083.67
1720.00	1153.88
1721.00	1046.22
1722.00	1039.20
1723.00	973.66
1724.00	1025.15
1725.00	950.26
1726.00	1013.45
1727.00	997.07
1728.00	1001.75
1729.00	1057.92
1730.00	1008.77
1731.00	1104.73
1732.00	1118.78
1733.00	976.00
1734.00	1046.22
1735.00	1100.05
1736.00	1022.81
1737.00	1041.54
1738.00	1102.39
1739.00	1041.54
1740.00	1107.07
1741.00	1090.69
1742.00	1069.62
1743.00	1109.41
1744.00	1102.39
1745.00	1001.75
1746.00	1090.69
1747.00	1100.05
1748.00	1008.77
1749.00	1053.24
1750.00	1039.20
1751.00	1060.26
1752.00	1090.69
1753.00	985.37
1754.00	947.92
1755.00	1057.92
1756.00	1013.45
1757.00	1060.26
1758.00	966.64
1759.00	973.66
1760.00	978.34
1761.00	990.05
1762.00	954.94
1763.00	1046.22
1764.00	997.07
1765.00	940.90
1766.00	1013.45
1767.00	1011.11
1768.00	1001.75
1769.00	894.08
1770.00	952.60
1771.00	964.30
1772.00	959.62
1773.00	940.90
1774.00	940.90
1775.00	1062.60
1776.00	938.55
1777.00	938.55
1778.00	891.74
1779.00	1020.47
1780.00	1043.88
1781.00	938.55
1782.00	898.77
1783.00	1004.09
1784.00	950.26
1785.00	894.08
1786.00	887.06
1787.00	933.87
1788.00	898.77
1789.00	873.02
1790.00	901.11
1791.00	898.77
1792.00	875.36
1793.00	910.47
1794.00	926.85
1795.00	873.02
1796.00	807.48
1797.00	966.64
1798.00	896.43
1799.00	957.28
1800.00	887.06
1801.00	821.53
1802.00	908.13
1803.00	924.51
1804.00	882.38
1805.00	849.61
1806.00	835.57
1807.00	800.46
1808.00	842.59
1809.00	807.48
1810.00	875.36
1811.00	800.46
1812.00	912.81
1813.00	887.06
1814.00	875.36
1815.00	915.15
1816.00	889.40
1817.00	868.34
1818.00	840.25
1819.00	936.21
1820.00	891.74
1821.00	912.81
1822.00	863.66
1823.00	854.30
1824.00	954.94
1825.00	842.59
1826.00	858.98
1827.00	901.11
1828.00	887.06
1829.00	856.64
1830.00	795.78
1831.00	835.57
1832.00	837.91
1833.00	847.27
1834.00	781.74
1835.00	866.00
1836.00	833.23
1837.00	835.57
1838.00	847.27
1839.00	791.10
1840.00	819.19
1841.00	805.14
1842.00	791.10
1843.00	908.13
1844.00	868.34
1845.00	809.83
1846.00	844.93
1847.00	854.30
1848.00	786.42
1849.00	800.46
1850.00	812.17
1851.00	737.27
1852.00	821.53
1853.00	809.83
1854.00	793.44
1855.00	847.27
1856.00	751.31
1857.00	816.85
1858.00	814.51
1859.00	802.80
1860.00	837.91
1861.00	835.57
1862.00	807.48
1863.00	863.66
1864.00	849.61
1865.00	828.55
1866.00	866.00
1867.00	763.01
1868.00	777.06
1869.00	819.19
1870.00	816.85
1871.00	826.21
1872.00	777.06
1873.00	812.17
1874.00	812.17
1875.00	795.78
1876.00	755.99
1877.00	741.95
1878.00	819.19
1879.00	828.55
1880.00	774.72
1881.00	781.74
1882.00	774.72
1883.00	873.02
1884.00	758.33
1885.00	814.51
1886.00	816.85
1887.00	833.23
1888.00	812.17
1889.00	816.85
1890.00	898.77
1891.00	779.40
1892.00	873.02
1893.00	741.95
1894.00	786.42
1895.00	805.14
1896.00	772.38
1897.00	739.61
1898.00	753.65
1899.00	763.01
1900.00	765.36
1901.00	809.83
1902.00	732.59
1903.00	739.61
1904.00	781.74
1905.00	772.38
1906.00	678.76
1907.00	758.33
1908.00	746.63
1909.00	784.08
1910.00	734.93
1911.00	716.20
1912.00	748.97
1913.00	695.14
1914.00	723.23
1915.00	688.12
1916.00	774.72
1917.00	704.50
1918.00	688.12
1919.00	760.67
1920.00	718.54
1921.00	734.93
1922.00	683.44
1923.00	770.04
1924.00	751.31
1925.00	704.50
1926.00	674.07
1927.00	683.44
1928.00	741.95
1929.00	718.54
1930.00	777.06
1931.00	737.27
1932.00	739.61
1933.00	692.80
1934.00	741.95
1935.00	725.57
1936.00	713.86
1937.00	739.61
1938.00	734.93
1939.00	830.89
1940.00	716.20
1941.00	746.63
1942.00	683.44
1943.00	732.59
1944.00	699.82
1945.00	699.82
1946.00	716.20
1947.00	739.61
1948.00	732.59
1949.00	695.14
1950.00	734.93
1951.00	718.54
1952.00	671.73
1953.00	767.70
1954.00	755.99
1955.00	727.91
1956.00	709.18
1957.00	737.27
1958.00	732.59
1959.00	678.76
1960.00	725.57
1961.00	685.78
1962.00	720.88
1963.00	669.39
1964.00	732.59
1965.00	746.63
1966.00	648.33
1967.00	667.05
1968.00	688.12
1969.00	667.05
1970.00	660.03
1971.00	692.80
1972.00	608.54
1973.00	718.54
1974.00	678.76
1975.00	718.54
1976.00	737.27
1977.00	709.18
1978.00	767.70
1979.00	688.12
1980.00	664.71
1981.00	702.16
1982.00	690.46
1983.00	711.52
1984.00	685.78
1985.00	730.25
1986.00	645.99
1987.00	734.93
1988.00	718.54
1989.00	739.61
1990.00	770.04
1991.00	777.06
1992.00	648.33
1993.00	683.44
1994.00	711.52
1995.00	734.93
1996.00	678.76
1997.00	624.92
1998.00	734.93
1999.00	755.99
2000.00	690.46
2001.00	734.93
2002.00	688.12
2003.00	903.45
2004.00	732.59
2005.00	725.57
2006.00	739.61
2007.00	688.12
2008.00	688.12
2009.00	634.29
2010.00	697.48
2011.00	660.03
2012.00	669.39
2013.00	709.18
2014.00	706.84
2015.00	631.94
2016.00	716.20
2017.00	697.48
2018.00	648.33
2019.00	678.76
2020.00	716.20
2021.00	720.88
2022.00	648.33
2023.00	777.06
2024.00	631.94
2025.00	704.50
2026.00	645.99
2027.00	645.99
2028.00	763.01
2029.00	690.46
2030.00	683.44
2031.00	683.44
2032.00	739.61
2033.00	671.73
2034.00	664.71
2035.00	720.88
2036.00	720.88
2037.00	671.73
2038.00	669.39
2039.00	674.07
2040.00	613.22
2041.00	653.01
2042.00	704.50
2043.00	704.50
2044.00	678.76
2045.00	613.22
2046.00	695.14
2047.00	678.76
>>>>>End Processed Spectral Data<<<<<
