SpectraSuite Data File
++++++++++++++++++++++++++++++++++++
Date: Thu Oct 10 14:02:17 EDT 2019
User: surp
Dark Spectrum Present: No
Reference Spectrum Present: No
Number of Sampled Component Spectra: 1
Spectrometers: USB2+H05261
Integration Time (usec): 150000 (USB2+H05261)
Spectra Averaged: 1 (USB2+H05261)
Boxcar Smoothing: 0 (USB2+H05261)
Correct for Electrical Dark: No (USB2+H05261)
Strobe/Lamp Enabled: No (USB2+H05261)
Correct for Detector Non-linearity: No (USB2+H05261)
Correct for Stray Light: No (USB2+H05261)
Number of Pixels in Processed Spectrum: 2048
>>>>>Begin Processed Spectral Data<<<<<
0.00	484.49
1.00	484.49
2.00	484.49
3.00	369.80
4.00	393.21
5.00	428.32
6.00	381.51
7.00	327.68
8.00	344.06
9.00	365.12
10.00	376.83
11.00	372.15
12.00	327.68
13.00	374.49
14.00	358.10
15.00	386.19
16.00	388.53
17.00	402.57
18.00	440.02
19.00	428.32
20.00	414.27
21.00	428.32
22.00	444.70
23.00	503.22
24.00	1088.35
25.00	2843.75
26.00	2672.89
27.00	2857.79
28.00	2939.71
29.00	2644.81
30.00	2693.96
31.00	2565.23
32.00	2665.87
33.00	2703.32
34.00	2623.74
35.00	2530.12
36.00	2457.56
37.00	2616.72
38.00	2431.82
39.00	2441.18
40.00	2569.91
41.00	2710.34
42.00	2567.57
43.00	2574.59
44.00	2593.31
45.00	2839.07
46.00	2963.12
47.00	2970.14
48.00	2897.58
49.00	3052.06
50.00	2953.76
51.00	3047.38
52.00	3117.59
53.00	3187.81
54.00	3344.63
55.00	3389.10
56.00	3452.29
57.00	3609.11
58.00	3658.26
59.00	3749.54
60.00	3854.86
61.00	3702.73
62.00	3648.90
63.00	3447.61
64.00	3520.17
65.00	3379.73
66.00	3314.20
67.00	3211.22
68.00	3141.00
69.00	3283.77
70.00	3262.71
71.00	3487.40
72.00	3578.68
73.00	3808.05
74.00	3653.58
75.00	3562.30
76.00	3499.10
77.00	3185.47
78.00	3054.40
79.00	3056.74
80.00	2899.92
81.00	2850.77
82.00	2684.59
83.00	2607.36
84.00	2569.91
85.00	2502.03
86.00	2499.69
87.00	2553.52
88.00	2684.59
89.00	2717.36
90.00	2946.73
91.00	3152.70
92.00	3346.97
93.00	3468.67
94.00	3583.36
95.00	3754.22
96.00	3578.68
97.00	3550.59
98.00	3417.18
99.00	3414.84
100.00	3468.67
101.00	3475.70
102.00	3538.89
103.00	3669.96
104.00	3566.98
105.00	3588.04
106.00	3602.08
107.00	3730.81
108.00	3737.84
109.00	3749.54
110.00	3712.09
111.00	3667.62
112.00	3733.15
113.00	3632.51
114.00	3728.47
115.00	4007.00
116.00	4044.45
117.00	4278.50
118.00	4421.27
119.00	4486.81
120.00	4730.22
121.00	4524.26
122.00	4627.24
123.00	4692.77
124.00	4816.82
125.00	5025.13
126.00	5125.77
127.00	5242.80
128.00	5186.63
129.00	5123.43
130.00	4938.53
131.00	4894.06
132.00	4638.94
133.00	4266.80
134.00	4142.75
135.00	3674.64
136.00	3201.85
137.00	3014.61
138.00	2977.16
139.00	2780.56
140.00	3218.24
141.00	3492.08
142.00	3925.08
143.00	4425.95
144.00	4835.55
145.00	5186.63
146.00	5362.17
147.00	5713.25
148.00	5645.37
149.00	5832.62
150.00	5612.60
151.00	5373.87
152.00	5039.17
153.00	4629.58
154.00	4058.49
155.00	3737.84
156.00	3552.93
157.00	3744.86
158.00	4007.00
159.00	4674.05
160.00	5350.46
161.00	5837.30
162.00	6546.48
163.00	6796.92
164.00	7176.08
165.00	7148.00
166.00	7485.03
167.00	7789.30
168.00	7644.19
169.00	8046.76
170.00	7791.64
171.00	8121.66
172.00	8091.23
173.00	8308.90
174.00	8334.65
175.00	8315.92
176.00	8430.61
177.00	8664.66
178.00	8638.92
179.00	8943.19
180.00	8896.38
181.00	8999.36
182.00	9048.51
183.00	9088.30
184.00	9261.50
185.00	9312.99
186.00	9376.19
187.00	8826.16
188.00	8877.65
189.00	8891.70
190.00	8769.99
191.00	9116.39
192.00	9109.36
193.00	9151.49
194.00	9371.50
195.00	9394.91
196.00	9139.79
197.00	9273.20
198.00	9303.63
199.00	9362.14
200.00	9254.48
201.00	9359.80
202.00	9425.34
203.00	9268.52
204.00	8997.02
205.00	9060.21
206.00	9071.92
207.00	9048.51
208.00	9341.08
209.00	9458.10
210.00	9296.61
211.00	9476.83
212.00	9483.85
213.00	9673.43
214.00	9802.16
215.00	10214.10
216.00	10120.48
217.00	10736.04
218.00	10794.55
219.00	10768.80
220.00	10698.59
221.00	10586.24
222.00	10382.62
223.00	10036.22
224.00	9643.01
225.00	9542.36
226.00	9423.00
227.00	9771.74
228.00	10331.12
229.00	10483.26
230.00	11052.01
231.00	11360.96
232.00	11442.88
233.00	11520.12
234.00	11515.44
235.00	11609.06
236.00	11534.16
237.00	11559.91
238.00	11822.05
239.00	11538.84
240.00	11492.03
241.00	11398.41
242.00	11344.58
243.00	11847.79
244.00	11880.56
245.00	11946.09
246.00	12058.44
247.00	11955.46
248.00	12070.14
249.00	12032.69
250.00	12088.87
251.00	12339.30
252.00	12238.66
253.00	12395.48
254.00	12219.94
255.00	12608.47
256.00	12814.43
257.00	12973.59
258.00	13074.23
259.00	13212.32
260.00	12910.40
261.00	12835.50
262.00	12599.10
263.00	12451.65
264.00	12479.74
265.00	12205.89
266.00	12180.15
267.00	12816.77
268.00	12688.04
269.00	12645.91
270.00	12812.09
271.00	13090.62
272.00	12947.84
273.00	13284.88
274.00	13160.83
275.00	12795.71
276.00	12606.13
277.00	12624.85
278.00	12608.47
279.00	12943.16
280.00	13547.02
281.00	13774.05
282.00	14125.13
283.00	14164.92
284.00	13956.61
285.00	14265.57
286.00	14068.96
287.00	13891.08
288.00	13369.14
289.00	13289.56
290.00	12959.55
291.00	12858.90
292.00	12564.00
293.00	12992.31
294.00	13397.23
295.00	13603.19
296.00	13493.19
297.00	13371.48
298.00	13762.35
299.00	13895.76
300.00	13692.13
301.00	13816.18
302.00	13298.92
303.00	13462.76
304.00	13500.21
305.00	13565.74
306.00	13301.26
307.00	13074.23
308.00	13202.96
309.00	13563.40
310.00	13392.55
311.00	13682.77
312.00	13418.29
313.00	13097.64
314.00	12950.18
315.00	12365.05
316.00	12444.63
317.00	12835.50
318.00	12805.07
319.00	13401.91
320.00	13329.35
321.00	13462.76
322.00	12894.01
323.00	12898.69
324.00	12758.26
325.00	12762.94
326.00	12645.91
327.00	12489.10
328.00	12086.53
329.00	11442.88
330.00	10803.91
331.00	10459.85
332.00	9729.61
333.00	9811.53
334.00	9738.97
335.00	10317.08
336.00	11234.57
337.00	12224.62
338.00	13259.13
339.00	14265.57
340.00	15246.25
341.00	15030.92
342.00	14682.18
343.00	14108.75
344.00	14132.15
345.00	14204.71
346.00	14689.20
347.00	15173.69
348.00	15131.56
349.00	14698.56
350.00	14066.62
351.00	13460.42
352.00	13310.63
353.00	13661.71
354.00	14211.73
355.00	14480.89
356.00	14764.10
357.00	15234.55
358.00	15225.18
359.00	14984.11
360.00	15700.31
361.00	15756.49
362.00	16212.89
363.00	16390.77
364.00	16472.69
365.00	16460.99
366.00	16259.70
367.00	16013.95
368.00	16065.44
369.00	15817.34
370.00	15461.58
371.00	15372.64
372.00	14977.09
373.00	14750.06
374.00	14902.19
375.00	14218.75
376.00	14684.52
377.00	14513.66
378.00	15161.99
379.00	15597.33
380.00	15995.22
381.00	16222.25
382.00	16678.66
383.00	16573.33
384.00	16425.88
385.00	16051.39
386.00	16060.76
387.00	16444.60
388.00	16989.95
389.00	17268.47
390.00	17399.54
391.00	18281.92
392.00	18228.09
393.00	18052.55
394.00	18483.21
395.00	18750.03
396.00	18796.84
397.00	18944.30
398.00	19187.71
399.00	18998.13
400.00	19276.65
401.00	18991.11
402.00	19108.13
403.00	19295.38
404.00	19321.12
405.00	19613.69
406.00	19634.75
407.00	19646.46
408.00	19435.81
409.00	18995.79
410.00	19136.22
411.00	19232.18
412.00	18892.80
413.00	18398.95
414.00	18228.09
415.00	18012.76
416.00	17965.95
417.00	18462.15
418.00	18520.66
419.00	18621.30
420.00	19403.04
421.00	19536.45
422.00	20072.43
423.00	20013.92
424.00	20287.76
425.00	20493.73
426.00	20493.73
427.00	19910.94
428.00	19814.98
429.00	19901.58
430.00	20152.01
431.00	20294.79
432.00	19932.00
433.00	19686.25
434.00	20114.56
435.00	20383.73
436.00	20695.02
437.00	20720.76
438.00	20877.58
439.00	21369.09
440.00	21649.96
441.00	21783.37
442.00	22068.91
443.00	21614.85
444.00	21259.09
445.00	21376.11
446.00	21055.46
447.00	21280.15
448.00	21055.46
449.00	21280.15
450.00	20376.70
451.00	20835.45
452.00	19990.52
453.00	19805.61
454.00	19318.78
455.00	19639.44
456.00	19939.02
457.00	20343.94
458.00	20716.08
459.00	21128.02
460.00	21149.08
461.00	21095.25
462.00	20741.83
463.00	21153.76
464.00	20809.70
465.00	20673.95
466.00	20828.43
467.00	21174.83
468.00	21727.19
469.00	21350.37
470.00	21654.64
471.00	22188.28
472.00	22272.54
473.00	22162.53
474.00	21696.77
475.00	22560.42
476.00	22644.68
477.00	22909.16
478.00	23194.71
479.00	22534.68
480.00	22656.39
481.00	22232.75
482.00	22038.48
483.00	21905.07
484.00	21532.93
485.00	22183.60
486.00	22504.25
487.00	22305.31
488.00	22363.82
489.00	21977.63
490.00	22263.18
491.00	21956.57
492.00	22333.39
493.00	22209.34
494.00	22768.73
495.00	22544.04
496.00	22902.14
497.00	23192.37
498.00	23608.98
499.00	23201.73
500.00	23403.02
501.00	23365.57
502.00	23667.50
503.00	23957.72
504.00	23864.10
505.00	23644.09
506.00	23616.01
507.00	23786.86
508.00	24023.26
509.00	23679.20
510.00	23775.16
511.00	23873.46
512.00	23786.86
513.00	23896.87
514.00	23225.14
515.00	23136.20
516.00	23058.96
517.00	23414.72
518.00	22941.93
519.00	22658.73
520.00	22658.73
521.00	23403.02
522.00	23571.54
523.00	23133.86
524.00	23845.38
525.00	23618.35
526.00	23632.39
527.00	23129.17
528.00	22644.68
529.00	22265.52
530.00	22270.20
531.00	22906.82
532.00	22941.93
533.00	23229.82
534.00	23428.76
535.00	23300.03
536.00	23660.48
537.00	23084.70
538.00	23065.98
539.00	23026.19
540.00	23538.77
541.00	23522.38
542.00	23613.66
543.00	23424.08
544.00	23889.85
545.00	23168.96
546.00	23049.60
547.00	22742.99
548.00	22974.70
549.00	22939.59
550.00	22890.44
551.00	23180.67
552.00	23445.15
553.00	23403.02
554.00	23566.85
555.00	24119.22
556.00	24905.64
557.00	24793.29
558.00	25230.98
559.00	25582.06
560.00	25525.88
561.00	25364.39
562.00	25144.38
563.00	24699.67
564.00	24814.36
565.00	24575.62
566.00	25116.29
567.00	25652.27
568.00	25027.35
569.00	25626.53
570.00	25436.94
571.00	26113.36
572.00	26665.72
573.00	26256.13
574.00	26012.71
575.00	26188.25
576.00	26335.71
577.00	26202.30
578.00	26214.00
579.00	26356.77
580.00	25996.33
581.00	26026.76
582.00	26588.49
583.00	26635.30
584.00	26031.44
585.00	26953.61
586.00	27178.30
587.00	28486.66
588.00	27716.62
589.00	27548.11
590.00	28568.58
591.00	28790.93
592.00	28893.91
593.00	29120.95
594.00	29254.36
595.00	28739.44
596.00	28613.05
597.00	29315.21
598.00	29549.26
599.00	30047.80
600.00	30469.09
601.00	30445.69
602.00	30307.60
603.00	30354.41
604.00	30295.89
605.00	31089.34
606.00	32011.51
607.00	30412.92
608.00	31145.51
609.00	31721.28
610.00	32009.17
611.00	32327.48
612.00	31564.46
613.00	32493.66
614.00	32533.45
615.00	32488.98
616.00	32453.87
617.00	32215.13
618.00	32601.32
619.00	32245.56
620.00	32957.08
621.00	33205.18
622.00	33308.16
623.00	33450.94
624.00	33972.88
625.00	33076.45
626.00	33186.46
627.00	32910.27
628.00	33476.68
629.00	33598.39
630.00	34019.69
631.00	34230.33
632.00	32706.65
633.00	31866.39
634.00	31028.48
635.00	29921.41
636.00	28395.38
637.00	28348.57
638.00	28868.17
639.00	29385.43
640.00	30792.09
641.00	31831.29
642.00	32655.15
643.00	33228.59
644.00	33617.11
645.00	34382.47
646.00	34904.41
647.00	36011.48
648.00	36037.23
649.00	36135.53
650.00	36222.13
651.00	35744.66
652.00	35573.80
653.00	35700.19
654.00	36109.78
655.00	37003.87
656.00	38480.75
657.00	38927.79
658.00	39491.86
659.00	39344.41
660.00	39321.00
661.00	38888.00
662.00	39016.73
663.00	39288.23
664.00	38883.32
665.00	38934.81
666.00	38740.55
667.00	38731.18
668.00	38476.07
669.00	38066.47
670.00	37167.71
671.00	37471.98
672.00	37886.25
673.00	38831.83
674.00	40130.83
675.00	40914.90
676.00	41453.23
677.00	40411.69
678.00	40112.10
679.00	40327.43
680.00	40322.75
681.00	40580.21
682.00	41329.18
683.00	42202.20
684.00	42955.85
685.00	43367.79
686.00	43562.05
687.00	43531.62
688.00	43225.01
689.00	42389.44
690.00	42983.94
691.00	41862.82
692.00	41890.91
693.00	42499.45
694.00	43571.41
695.00	43999.73
696.00	44098.03
697.00	44037.18
698.00	44191.65
699.00	44727.64
700.00	44240.81
701.00	44758.06
702.00	44184.63
703.00	43662.69
704.00	43175.86
705.00	42885.64
706.00	42110.92
707.00	42876.27
708.00	43264.80
709.00	44453.79
710.00	44861.05
711.00	45270.64
712.00	45017.86
713.00	44828.28
714.00	45020.20
715.00	44301.66
716.00	44624.65
717.00	43852.28
718.00	43569.07
719.00	43187.56
720.00	43164.16
721.00	43241.40
722.00	43173.52
723.00	43313.95
724.00	43269.48
725.00	43047.13
726.00	42932.45
727.00	43381.83
728.00	44350.81
729.00	44847.00
730.00	45001.48
731.00	45174.68
732.00	44811.90
733.00	45031.91
734.00	45797.26
735.00	45113.83
736.00	44722.96
737.00	44076.97
738.00	43873.34
739.00	44666.78
740.00	44549.76
741.00	44884.45
742.00	46220.90
743.00	46380.06
744.00	46054.72
745.00	46543.89
746.00	47143.07
747.00	47529.26
748.00	48053.54
749.00	47936.51
750.00	48072.26
751.00	47917.79
752.00	47522.24
753.00	47327.97
754.00	46742.84
755.00	47096.26
756.00	46597.73
757.00	46483.04
758.00	46403.46
759.00	46181.11
760.00	45890.88
761.00	45570.23
762.00	45799.60
763.00	46679.64
764.00	47215.63
765.00	47613.52
766.00	48250.14
767.00	48236.10
768.00	48631.65
769.00	47648.63
770.00	48193.97
771.00	48130.78
772.00	47636.92
773.00	47938.85
774.00	47636.92
775.00	47983.32
776.00	47966.94
777.00	47693.10
778.00	48378.87
779.00	48404.62
780.00	48947.62
781.00	49141.89
782.00	49773.83
783.00	49607.65
784.00	48811.87
785.00	48711.23
786.00	48058.22
787.00	47555.00
788.00	47950.56
789.00	47814.80
790.00	48392.92
791.00	47693.10
792.00	47847.57
793.00	47594.79
794.00	47386.49
795.00	47327.97
796.00	46789.65
797.00	47016.68
798.00	47337.33
799.00	47676.71
800.00	48002.05
801.00	47807.78
802.00	48179.93
803.00	48636.33
804.00	48612.93
805.00	48608.25
806.00	49146.57
807.00	48830.60
808.00	47033.07
809.00	46010.25
810.00	44018.46
811.00	43168.84
812.00	41507.06
813.00	41378.33
814.00	41759.84
815.00	43697.80
816.00	44685.51
817.00	45989.19
818.00	45689.60
819.00	45940.04
820.00	44430.39
821.00	43805.47
822.00	44175.27
823.00	45127.87
824.00	46813.05
825.00	47344.36
826.00	47674.37
827.00	47587.77
828.00	48470.15
829.00	49017.84
830.00	49289.34
831.00	49366.58
832.00	49059.97
833.00	48854.00
834.00	48060.56
835.00	48790.81
836.00	48610.59
837.00	49116.14
838.00	49830.01
839.00	49535.10
840.00	49815.96
841.00	50267.69
842.00	49731.70
843.00	49808.94
844.00	49198.06
845.00	48781.45
846.00	48315.68
847.00	47870.98
848.00	48301.64
849.00	49076.35
850.00	49839.37
851.00	49631.06
852.00	50560.25
853.00	50377.69
854.00	51152.41
855.00	51063.47
856.00	51047.08
857.00	50983.89
858.00	50628.13
859.00	50803.67
860.00	50508.76
861.00	50782.60
862.00	50274.71
863.00	50597.70
864.00	50962.82
865.00	49645.10
866.00	49165.29
867.00	47618.20
868.00	46557.94
869.00	45530.44
870.00	45497.67
871.00	45624.06
872.00	46576.66
873.00	47435.64
874.00	48467.81
875.00	49141.89
876.00	49741.06
877.00	49787.88
878.00	50021.93
879.00	50230.24
880.00	50567.27
881.00	51136.02
882.00	51915.42
883.00	51290.50
884.00	51669.67
885.00	51222.62
886.00	50286.41
887.00	50499.40
888.00	49560.84
889.00	50134.28
890.00	50508.76
891.00	50838.78
892.00	51402.85
893.00	51915.42
894.00	51543.28
895.00	51632.22
896.00	51416.89
897.00	51709.46
898.00	50586.00
899.00	51014.32
900.00	50581.32
901.00	49813.62
902.00	49509.35
903.00	48751.02
904.00	48165.88
905.00	48109.71
906.00	48706.55
907.00	48884.43
908.00	49951.71
909.00	49724.68
910.00	51021.34
911.00	50157.68
912.00	49961.08
913.00	49619.36
914.00	49408.71
915.00	49455.52
916.00	50258.32
917.00	50073.42
918.00	50717.07
919.00	51133.68
920.00	50986.23
921.00	51363.06
922.00	51615.83
923.00	51276.46
924.00	51168.79
925.00	50480.67
926.00	49790.22
927.00	49109.12
928.00	48648.03
929.00	48404.62
930.00	48655.06
931.00	48818.89
932.00	49279.98
933.00	49867.45
934.00	50050.02
935.00	49832.35
936.00	50192.79
937.00	49734.04
938.00	50225.56
939.00	49574.89
940.00	50234.92
941.00	49738.72
942.00	49085.72
943.00	49097.42
944.00	48781.45
945.00	48339.08
946.00	48245.46
947.00	48252.48
948.00	47519.90
949.00	48067.58
950.00	47746.93
951.00	47330.31
952.00	47562.03
953.00	47028.38
954.00	47751.61
955.00	48177.59
956.00	48521.65
957.00	48739.32
958.00	48996.77
959.00	49640.42
960.00	48956.99
961.00	48694.85
962.00	48259.51
963.00	48633.99
964.00	48910.17
965.00	48493.56
966.00	48011.41
967.00	48561.44
968.00	48882.09
969.00	49132.53
970.00	48959.33
971.00	50021.93
972.00	50443.23
973.00	49874.48
974.00	49263.60
975.00	49024.86
976.00	48973.37
977.00	48872.73
978.00	49212.10
979.00	49457.86
980.00	49097.42
981.00	49195.72
982.00	49530.42
983.00	48987.41
984.00	48926.56
985.00	48896.13
986.00	48641.01
987.00	48594.20
988.00	48470.15
989.00	48573.14
990.00	48144.82
991.00	48772.08
992.00	47381.80
993.00	47173.50
994.00	47159.45
995.00	47908.43
996.00	48495.90
997.00	48325.04
998.00	49071.67
999.00	48907.83
1000.00	48992.09
1001.00	48715.91
1002.00	48491.22
1003.00	48460.79
1004.00	48175.25
1005.00	48133.12
1006.00	48559.09
1007.00	48418.66
1008.00	48119.07
1009.00	48107.37
1010.00	47763.31
1011.00	48311.00
1012.00	47866.30
1013.00	48004.39
1014.00	47592.45
1015.00	48062.90
1016.00	48161.20
1017.00	48584.84
1018.00	48729.95
1019.00	48729.95
1020.00	48697.19
1021.00	47995.03
1022.00	47894.38
1023.00	47615.86
1024.00	46794.33
1025.00	47232.01
1026.00	47086.90
1027.00	48041.84
1028.00	47997.37
1029.00	47992.68
1030.00	47620.54
1031.00	47817.14
1032.00	48779.10
1033.00	48217.38
1034.00	48442.07
1035.00	48392.92
1036.00	48289.93
1037.00	48467.81
1038.00	48411.64
1039.00	48278.23
1040.00	47578.41
1041.00	47613.52
1042.00	47199.24
1043.00	47342.02
1044.00	47290.52
1045.00	46777.95
1046.00	46923.06
1047.00	46869.23
1048.00	46429.21
1049.00	46387.08
1050.00	46293.46
1051.00	46618.79
1052.00	46726.46
1053.00	46681.98
1054.00	47232.01
1055.00	46665.60
1056.00	46653.90
1057.00	46138.98
1058.00	45640.45
1059.00	44835.30
1060.00	44900.84
1061.00	44664.44
1062.00	44404.64
1063.00	45647.47
1064.00	45385.33
1065.00	44879.77
1066.00	45734.07
1067.00	45904.93
1068.00	45708.32
1069.00	45720.02
1070.00	46398.78
1071.00	46890.29
1072.00	47545.64
1073.00	47377.12
1074.00	46944.12
1075.00	46733.48
1076.00	45507.04
1077.00	45425.12
1078.00	45382.99
1079.00	45280.00
1080.00	45748.11
1081.00	45340.86
1082.00	45764.49
1083.00	45652.15
1084.00	46167.07
1085.00	46321.54
1086.00	46469.00
1087.00	46220.90
1088.00	46225.58
1089.00	45731.73
1090.00	45595.98
1091.00	45338.52
1092.00	45549.17
1093.00	45598.32
1094.00	45324.47
1095.00	45785.56
1096.00	46000.89
1097.00	45404.05
1098.00	45226.17
1099.00	45308.09
1100.00	45244.90
1101.00	44130.80
1102.00	44137.82
1103.00	43793.76
1104.00	43711.84
1105.00	43791.42
1106.00	44355.49
1107.00	44266.55
1108.00	44816.58
1109.00	45151.27
1110.00	45209.79
1111.00	45544.48
1112.00	45713.00
1113.00	45261.28
1114.00	45146.59
1115.00	44701.89
1116.00	44762.75
1117.00	44278.25
1118.00	43662.69
1119.00	43295.23
1120.00	43276.51
1121.00	43665.03
1122.00	43501.20
1123.00	43959.94
1124.00	43618.22
1125.00	43662.69
1126.00	43985.69
1127.00	43775.04
1128.00	43597.16
1129.00	43225.01
1130.00	42876.27
1131.00	42883.30
1132.00	42391.78
1133.00	42122.62
1134.00	41457.91
1135.00	42040.70
1136.00	41682.60
1137.00	42586.05
1138.00	42499.45
1139.00	43079.90
1140.00	43597.16
1141.00	43643.97
1142.00	44018.46
1143.00	43924.83
1144.00	44442.09
1145.00	44048.88
1146.00	43789.08
1147.00	44292.30
1148.00	43288.21
1149.00	43594.82
1150.00	43318.64
1151.00	43636.95
1152.00	43208.63
1153.00	43508.22
1154.00	43309.27
1155.00	42728.82
1156.00	42672.65
1157.00	42080.49
1158.00	42019.64
1159.00	42047.72
1160.00	42213.90
1161.00	41769.20
1162.00	41808.99
1163.00	41385.35
1164.00	41371.31
1165.00	41359.61
1166.00	41968.15
1167.00	41607.70
1168.00	42492.43
1169.00	42401.14
1170.00	42604.77
1171.00	42096.88
1172.00	42024.32
1173.00	41773.88
1174.00	42241.99
1175.00	41673.24
1176.00	41153.64
1177.00	40959.38
1178.00	40856.39
1179.00	39931.88
1180.00	40495.95
1181.00	40147.21
1182.00	40512.33
1183.00	40800.22
1184.00	40765.11
1185.00	41060.02
1186.00	41069.38
1187.00	41205.13
1188.00	41319.82
1189.00	41167.68
1190.00	41661.54
1191.00	41457.91
1192.00	41708.35
1193.00	40776.81
1194.00	41198.11
1195.00	41233.22
1196.00	41488.34
1197.00	41186.41
1198.00	41425.14
1199.00	41301.09
1200.00	41345.56
1201.00	41013.21
1202.00	41268.33
1203.00	41755.16
1204.00	41991.55
1205.00	41439.18
1206.00	42010.28
1207.00	41598.34
1208.00	41970.49
1209.00	41411.10
1210.00	41731.75
1211.00	41656.85
1212.00	41226.20
1213.00	41518.76
1214.00	42066.45
1215.00	41326.84
1216.00	41680.26
1217.00	41408.76
1218.00	40725.32
1219.00	41387.69
1220.00	40959.38
1221.00	41045.97
1222.00	40128.48
1223.00	40472.54
1224.00	39412.28
1225.00	39473.13
1226.00	39321.00
1227.00	39447.39
1228.00	39236.74
1229.00	39807.83
1230.00	39632.29
1231.00	39707.19
1232.00	40273.60
1233.00	40596.59
1234.00	39995.07
1235.00	40395.31
1236.00	40360.20
1237.00	39856.98
1238.00	39480.16
1239.00	39765.70
1240.00	39852.30
1241.00	39091.63
1242.00	38279.46
1243.00	37586.66
1244.00	36933.65
1245.00	36126.17
1246.00	35096.33
1247.00	34281.83
1248.00	34263.10
1249.00	34560.35
1250.00	35159.53
1251.00	35344.43
1252.00	36470.23
1253.00	36954.72
1254.00	38094.56
1255.00	38377.76
1256.00	38485.43
1257.00	39065.88
1258.00	39068.22
1259.00	38824.81
1260.00	38108.60
1261.00	38333.29
1262.00	38719.48
1263.00	38328.61
1264.00	38267.76
1265.00	38110.94
1266.00	38160.09
1267.00	37951.79
1268.00	38649.27
1269.00	38890.34
1270.00	38511.17
1271.00	37654.54
1272.00	37919.02
1273.00	38368.40
1274.00	38167.12
1275.00	38356.70
1276.00	38169.46
1277.00	38157.75
1278.00	37530.49
1279.00	37394.74
1280.00	37701.35
1281.00	36807.26
1282.00	37111.53
1283.00	37006.21
1284.00	37537.51
1285.00	37280.05
1286.00	37792.63
1287.00	37338.57
1288.00	37404.10
1289.00	37706.03
1290.00	38010.30
1291.00	37841.78
1292.00	38078.18
1293.00	37879.23
1294.00	37708.37
1295.00	37563.26
1296.00	37607.73
1297.00	37359.63
1298.00	37436.87
1299.00	37413.46
1300.00	37270.69
1301.00	37139.62
1302.00	37308.14
1303.00	36992.17
1304.00	36926.63
1305.00	36980.46
1306.00	36622.36
1307.00	36858.76
1308.00	36425.76
1309.00	36542.78
1310.00	36793.22
1311.00	36720.66
1312.00	36851.73
1313.00	37186.43
1314.00	36877.48
1315.00	36999.19
1316.00	36215.11
1317.00	36753.43
1318.00	36388.31
1319.00	36357.88
1320.00	36687.90
1321.00	36620.02
1322.00	36163.62
1323.00	36051.27
1324.00	36400.01
1325.00	36278.30
1326.00	35637.00
1327.00	35735.30
1328.00	35571.46
1329.00	35208.68
1330.00	35433.37
1331.00	35505.93
1332.00	35920.20
1333.00	35971.69
1334.00	36072.34
1335.00	36402.35
1336.00	36023.19
1337.00	35896.80
1338.00	36278.30
1339.00	36182.34
1340.00	36421.08
1341.00	36290.01
1342.00	36376.61
1343.00	36140.21
1344.00	35964.67
1345.00	36294.69
1346.00	35812.54
1347.00	35578.48
1348.00	35477.84
1349.00	35999.78
1350.00	35470.82
1351.00	35611.25
1352.00	35651.04
1353.00	35498.91
1354.00	35344.43
1355.00	35042.50
1356.00	35267.19
1357.00	35316.34
1358.00	35096.33
1359.00	34700.78
1360.00	35405.28
1361.00	35505.93
1362.00	35232.08
1363.00	35278.89
1364.00	35463.80
1365.00	34841.21
1366.00	34787.38
1367.00	34326.30
1368.00	33947.13
1369.00	34235.02
1370.00	34169.48
1371.00	33968.19
1372.00	33944.79
1373.00	33890.96
1374.00	34024.37
1375.00	34237.36
1376.00	34036.07
1377.00	33633.50
1378.00	33570.30
1379.00	33862.87
1380.00	33207.52
1381.00	33242.63
1382.00	32905.59
1383.00	32563.87
1384.00	33095.18
1385.00	32830.69
1386.00	33539.88
1387.00	33532.86
1388.00	33317.53
1389.00	33074.11
1390.00	33282.42
1391.00	33369.02
1392.00	32549.83
1393.00	32851.76
1394.00	32437.48
1395.00	32577.92
1396.00	32650.47
1397.00	32655.15
1398.00	32531.11
1399.00	32645.79
1400.00	32390.67
1401.00	32376.63
1402.00	32086.40
1403.00	31475.52
1404.00	31775.11
1405.00	31761.07
1406.00	31552.76
1407.00	31606.59
1408.00	31754.05
1409.00	31915.54
1410.00	32112.15
1411.00	31992.78
1412.00	31985.76
1413.00	31791.50
1414.00	31730.64
1415.00	31765.75
1416.00	31307.01
1417.00	30618.89
1418.00	30551.01
1419.00	30328.66
1420.00	29970.56
1421.00	29729.48
1422.00	29556.28
1423.00	30288.87
1424.00	30026.73
1425.00	30504.20
1426.00	30511.22
1427.00	30211.64
1428.00	30375.47
1429.00	30749.96
1430.00	31002.74
1431.00	31012.10
1432.00	31126.78
1433.00	31110.40
1434.00	31040.18
1435.00	30874.01
1436.00	30836.56
1437.00	30576.76
1438.00	30487.82
1439.00	30211.64
1440.00	30340.36
1441.00	30256.11
1442.00	30323.98
1443.00	30178.87
1444.00	30405.90
1445.00	30852.94
1446.00	30724.21
1447.00	30298.23
1448.00	30206.95
1449.00	30478.46
1450.00	30778.04
1451.00	30665.70
1452.00	30089.93
1453.00	30206.95
1454.00	29776.30
1455.00	29549.26
1456.00	29191.16
1457.00	29284.78
1458.00	29497.77
1459.00	29743.53
1460.00	29401.81
1461.00	29673.31
1462.00	29296.49
1463.00	29109.24
1464.00	28924.34
1465.00	28952.43
1466.00	29064.77
1467.00	28568.58
1468.00	28587.30
1469.00	28718.37
1470.00	28425.81
1471.00	28694.97
1472.00	28325.16
1473.00	28535.81
1474.00	28285.37
1475.00	28184.73
1476.00	27740.03
1477.00	27875.78
1478.00	27363.20
1479.00	27548.11
1480.00	27791.52
1481.00	27115.11
1482.00	27454.48
1483.00	27342.14
1484.00	27438.10
1485.00	27791.52
1486.00	27498.95
1487.00	27798.54
1488.00	27484.91
1489.00	27796.20
1490.00	27730.67
1491.00	27473.21
1492.00	27461.51
1493.00	26962.97
1494.00	26813.18
1495.00	26749.98
1496.00	25972.92
1497.00	25926.11
1498.00	25675.68
1499.00	25586.74
1500.00	25663.97
1501.00	26094.63
1502.00	26368.48
1503.00	26469.12
1504.00	26272.51
1505.00	26478.48
1506.00	26160.17
1507.00	26293.58
1508.00	26094.63
1509.00	26043.14
1510.00	25703.76
1511.00	25717.81
1512.00	25493.12
1513.00	25462.69
1514.00	25853.56
1515.00	25949.52
1516.00	25682.70
1517.00	25663.97
1518.00	25986.97
1519.00	25773.98
1520.00	25448.64
1521.00	25165.44
1522.00	25551.63
1523.00	24980.54
1524.00	24872.87
1525.00	25270.76
1526.00	25397.15
1527.00	25607.80
1528.00	25626.53
1529.00	25986.97
1530.00	25500.14
1531.00	25469.71
1532.00	25153.74
1533.00	25298.85
1534.00	25628.87
1535.00	24903.30
1536.00	25216.93
1537.00	25048.41
1538.00	25219.27
1539.00	25041.39
1540.00	24905.64
1541.00	25392.47
1542.00	25312.89
1543.00	25158.42
1544.00	25348.00
1545.00	25226.29
1546.00	25404.17
1547.00	25319.92
1548.00	25235.66
1549.00	25006.28
1550.00	24952.45
1551.00	24760.53
1552.00	24350.93
1553.00	24606.05
1554.00	24655.20
1555.00	24823.72
1556.00	24849.47
1557.00	25092.88
1558.00	24809.68
1559.00	24982.88
1560.00	24779.25
1561.00	24961.81
1562.00	25076.50
1563.00	24847.13
1564.00	24720.74
1565.00	24636.48
1566.00	24694.99
1567.00	24723.08
1568.00	24744.14
1569.00	24510.09
1570.00	24624.78
1571.00	24449.24
1572.00	24128.58
1573.00	24060.71
1574.00	23899.21
1575.00	24079.43
1576.00	24037.30
1577.00	23929.64
1578.00	24051.34
1579.00	23695.58
1580.00	23454.51
1581.00	23906.23
1582.00	23630.05
1583.00	23218.11
1584.00	23669.84
1585.00	23147.90
1586.00	23681.54
1587.00	23232.16
1588.00	23161.94
1589.00	22930.23
1590.00	23026.19
1591.00	23145.56
1592.00	23124.49
1593.00	22953.63
1594.00	22852.99
1595.00	22948.95
1596.00	23063.64
1597.00	23410.04
1598.00	22979.38
1599.00	22838.95
1600.00	23000.44
1601.00	23068.32
1602.00	22689.15
1603.00	22642.34
1604.00	22504.25
1605.00	22878.74
1606.00	22845.97
1607.00	22780.43
1608.00	22614.26
1609.00	22548.72
1610.00	23030.87
1611.00	22930.23
1612.00	22214.02
1613.00	22398.93
1614.00	22490.21
1615.00	22274.88
1616.00	22642.34
1617.00	22321.69
1618.00	22218.71
1619.00	22127.42
1620.00	21731.87
1621.00	21965.93
1622.00	21837.20
1623.00	21954.22
1624.00	21738.90
1625.00	22293.60
1626.00	21617.19
1627.00	21851.24
1628.00	21404.20
1629.00	21441.65
1630.00	21549.31
1631.00	21553.99
1632.00	21289.51
1633.00	21649.96
1634.00	21425.26
1635.00	21525.91
1636.00	21549.31
1637.00	21167.80
1638.00	21378.45
1639.00	21111.63
1640.00	20952.48
1641.00	20999.29
1642.00	20566.29
1643.00	20301.81
1644.00	20381.38
1645.00	20107.54
1646.00	20264.36
1647.00	20737.15
1648.00	20713.74
1649.00	21036.74
1650.00	21165.46
1651.00	21652.30
1652.00	21530.59
1653.00	21383.13
1654.00	20975.88
1655.00	20973.54
1656.00	20767.57
1657.00	20561.61
1658.00	20945.45
1659.00	20554.58
1660.00	20519.48
1661.00	20599.05
1662.00	20514.80
1663.00	20664.59
1664.00	20575.65
1665.00	20910.35
1666.00	20479.69
1667.00	20879.92
1668.00	20720.76
1669.00	21041.42
1670.00	20463.30
1671.00	20566.29
1672.00	20774.60
1673.00	20702.04
1674.00	20620.12
1675.00	20381.38
1676.00	20271.38
1677.00	20088.82
1678.00	20198.82
1679.00	19866.47
1680.00	19679.22
1681.00	19805.61
1682.00	19484.96
1683.00	19126.86
1684.00	19147.92
1685.00	18555.77
1686.00	18192.98
1687.00	17497.84
1688.00	16975.91
1689.00	16629.51
1690.00	16123.95
1691.00	15899.26
1692.00	15946.07
1693.00	16369.71
1694.00	16725.47
1695.00	17741.26
1696.00	18148.51
1697.00	18539.38
1698.00	18616.62
1699.00	19054.30
1700.00	18757.05
1701.00	18855.36
1702.00	19311.76
1703.00	19342.19
1704.00	19316.44
1705.00	19218.14
1706.00	19126.86
1707.00	19089.41
1708.00	19084.73
1709.00	19229.84
1710.00	18845.99
1711.00	18654.07
1712.00	19049.62
1713.00	18960.68
1714.00	18838.97
1715.00	19037.92
1716.00	18902.17
1717.00	18993.45
1718.00	19012.17
1719.00	18972.38
1720.00	18848.33
1721.00	18745.35
1722.00	18785.14
1723.00	18998.13
1724.00	18862.38
1725.00	18881.10
1726.00	18693.86
1727.00	18625.98
1728.00	18869.40
1729.00	18448.10
1730.00	18714.92
1731.00	18579.17
1732.00	18743.01
1733.00	18602.58
1734.00	18595.56
1735.00	18689.18
1736.00	18555.77
1737.00	18019.78
1738.00	18162.56
1739.00	18155.54
1740.00	18118.09
1741.00	17919.14
1742.00	17699.13
1743.00	17619.55
1744.00	17729.56
1745.00	18008.08
1746.00	17839.56
1747.00	17720.20
1748.00	17504.87
1749.00	18005.74
1750.00	17490.82
1751.00	17638.28
1752.00	17830.20
1753.00	17652.32
1754.00	17762.33
1755.00	17759.98
1756.00	17530.61
1757.00	17654.66
1758.00	17593.81
1759.00	17193.58
1760.00	17036.76
1761.00	17441.67
1762.00	17121.02
1763.00	16922.07
1764.00	17011.01
1765.00	17111.66
1766.00	16865.90
1767.00	17142.08
1768.00	17064.85
1769.00	16788.66
1770.00	16451.63
1771.00	16786.32
1772.00	17053.14
1773.00	16779.30
1774.00	16798.02
1775.00	16828.45
1776.00	16418.86
1777.00	16809.73
1778.00	16528.86
1779.00	16741.85
1780.00	16610.78
1781.00	16411.84
1782.00	16678.66
1783.00	16276.09
1784.00	16365.03
1785.00	16334.60
1786.00	16500.78
1787.00	15885.22
1788.00	15880.53
1789.00	16100.55
1790.00	16016.29
1791.00	16016.29
1792.00	15941.39
1793.00	15868.83
1794.00	16170.76
1795.00	15721.38
1796.00	15475.62
1797.00	15618.39
1798.00	15534.14
1799.00	15454.56
1800.00	15283.70
1801.00	15372.64
1802.00	15398.38
1803.00	15131.56
1804.00	15213.48
1805.00	15260.29
1806.00	14946.66
1807.00	14963.04
1808.00	15323.49
1809.00	15283.70
1810.00	15150.29
1811.00	14972.41
1812.00	14827.29
1813.00	14998.15
1814.00	15098.80
1815.00	14864.74
1816.00	14836.66
1817.00	14981.77
1818.00	14415.36
1819.00	14764.10
1820.00	14501.96
1821.00	14497.28
1822.00	14534.73
1823.00	14476.21
1824.00	14602.60
1825.00	14429.40
1826.00	14349.82
1827.00	14183.65
1828.00	14466.85
1829.00	14413.02
1830.00	14352.16
1831.00	13795.12
1832.00	14270.25
1833.00	14083.00
1834.00	13919.17
1835.00	13928.53
1836.00	13818.52
1837.00	13352.76
1838.00	13685.11
1839.00	13722.56
1840.00	13509.57
1841.00	13621.92
1842.00	13633.62
1843.00	13448.72
1844.00	13324.67
1845.00	13418.29
1846.00	13563.40
1847.00	13200.62
1848.00	13074.23
1849.00	13158.49
1850.00	13156.15
1851.00	12901.03
1852.00	12751.24
1853.00	12863.58
1854.00	12933.80
1855.00	12940.82
1856.00	12601.44
1857.00	12947.84
1858.00	12957.21
1859.00	12865.92
1860.00	12533.57
1861.00	12491.44
1862.00	12615.49
1863.00	12437.61
1864.00	12381.43
1865.00	12236.32
1866.00	12367.39
1867.00	12327.60
1868.00	12156.74
1869.00	12400.16
1870.00	12077.16
1871.00	12346.33
1872.00	12278.45
1873.00	12287.81
1874.00	12182.49
1875.00	12119.29
1876.00	12028.01
1877.00	11922.69
1878.00	11948.43
1879.00	11805.66
1880.00	11625.44
1881.00	11838.43
1882.00	11686.29
1883.00	11611.40
1884.00	11262.66
1885.00	11293.08
1886.00	11286.06
1887.00	11080.10
1888.00	11286.06
1889.00	11040.31
1890.00	11012.22
1891.00	11068.39
1892.00	11115.20
1893.00	10923.28
1894.00	11162.01
1895.00	11087.12
1896.00	11023.92
1897.00	10750.08
1898.00	10827.32
1899.00	10862.43
1900.00	10675.18
1901.00	10539.43
1902.00	10438.79
1903.00	10438.79
1904.00	10178.99
1905.00	9774.08
1906.00	9254.48
1907.00	9032.13
1908.00	8456.36
1909.00	8063.15
1910.00	7632.49
1911.00	7293.11
1912.00	6895.22
1913.00	7042.67
1914.00	7325.88
1915.00	7541.21
1916.00	7852.50
1917.00	8212.94
1918.00	8255.07
1919.00	8594.45
1920.00	8634.24
1921.00	8449.33
1922.00	8519.55
1923.00	8264.43
1924.00	8269.11
1925.00	8149.75
1926.00	8091.23
1927.00	8004.63
1928.00	7887.61
1929.00	8091.23
1930.00	8292.52
1931.00	8173.15
1932.00	8269.11
1933.00	8119.32
1934.00	8390.82
1935.00	8383.80
1936.00	8379.12
1937.00	8327.63
1938.00	8336.99
1939.00	8397.84
1940.00	8269.11
1941.00	8315.92
1942.00	8409.54
1943.00	8273.79
1944.00	8353.37
1945.00	8463.38
1946.00	8432.95
1947.00	8224.64
1948.00	8344.01
1949.00	8278.47
1950.00	8273.79
1951.00	8161.45
1952.00	8182.51
1953.00	7948.46
1954.00	8180.17
1955.00	7899.31
1956.00	8114.64
1957.00	8107.62
1958.00	7688.66
1959.00	7868.88
1960.00	7974.21
1961.00	7751.85
1962.00	7854.84
1963.00	7810.37
1964.00	7763.56
1965.00	7768.24
1966.00	7644.19
1967.00	7836.11
1968.00	7625.47
1969.00	7515.46
1970.00	7449.93
1971.00	7431.20
1972.00	7452.27
1973.00	7419.50
1974.00	7485.03
1975.00	7531.84
1976.00	7466.31
1977.00	7248.64
1978.00	7300.13
1979.00	7307.15
1980.00	7227.57
1981.00	7262.68
1982.00	7368.01
1983.00	7290.77
1984.00	7332.90
1985.00	7307.15
1986.00	7295.45
1987.00	7234.60
1988.00	7433.54
1989.00	7042.67
1990.00	6855.43
1991.00	6960.75
1992.00	6724.36
1993.00	6736.06
1994.00	6892.88
1995.00	6843.73
1996.00	6825.00
1997.00	6736.06
1998.00	6855.43
1999.00	6745.42
2000.00	6431.79
2001.00	6593.29
2002.00	6384.98
2003.00	6787.55
2004.00	6436.47
2005.00	6504.35
2006.00	6347.53
2007.00	6235.19
2008.00	6279.66
2009.00	6085.39
2010.00	6202.42
2011.00	6200.08
2012.00	6155.61
2013.00	6150.93
2014.00	6258.59
2015.00	5996.45
2016.00	5994.11
2017.00	6036.24
2018.00	5996.45
2019.00	5856.02
2020.00	6024.54
2021.00	6005.81
2022.00	5818.57
2023.00	5914.53
2024.00	5764.74
2025.00	5851.34
2026.00	5717.93
2027.00	5750.70
2028.00	5671.12
2029.00	5879.43
2030.00	5703.89
2031.00	5607.92
2032.00	5750.70
2033.00	5664.10
2034.00	5645.37
2035.00	5556.43
2036.00	5575.16
2037.00	5535.37
2038.00	5659.42
2039.00	5521.32
2040.00	5439.40
2041.00	5563.45
2042.00	5540.05
2043.00	5603.24
2044.00	5537.71
2045.00	5540.05
2046.00	5486.22
2047.00	5327.06
>>>>>End Processed Spectral Data<<<<<
